Range    : 5.000
Accuracy : 0.001
Control file  : C2HD3gr   
Spectrum file : w         

 Searching   1  1  0 near    726.65943
 No   1:   0  0  0        0.00000  reg   721.659 -   731.659
 No   2:   2  2  0       12.78833  reg   708.871 -   718.871
  0  0  0   721.87976 86.5   721.87976    2  2  0   709.09063 76.0   721.87896
  0  0  0   721.95005 72.1   721.95005    2  2  0   709.16232 59.5   721.95065
  0  0  0   722.35481 86.7   722.35481    2  2  0   709.56589 81.4   722.35422
  0  0  0   722.53259 79.6   722.53259    2  2  0   709.74469 68.4   722.53302
  0  0  0   722.61114 74.9   722.61114    2  2  0   709.82309 59.9   722.61142
  0  0  0   722.62596 78.3   722.62596    2  2  0   709.83687 73.1   722.62520
  0  0  0   722.65718 76.5   722.65718    2  2  0   709.86923 81.6   722.65756
  0  0  0   723.09262 34.2   723.09262    2  2  0   710.30359 86.2   723.09192
  0  0  0   723.10724 85.7   723.10724    2  2  0   710.31974 36.2   723.10807
  0  0  0   723.16835 31.9   723.16835    2  2  0   710.38058 88.6   723.16891
  0  0  0   723.27128 87.4   723.27128    2  2  0   710.48368 66.9   723.27201
  0  0  0   723.55253 85.7   723.55253    2  2  0   710.76342 77.2   723.55175
  0  0  0   723.83152 85.1   723.83152    2  2  0   711.04251 62.2   723.83084
  0  0  0   723.91987 88.4   723.91987    2  2  0   711.13198 71.4   723.92031
  0  0  0   724.05572 71.2   724.05572    2  2  0   711.26672 87.6   724.05505
  0  0  0   724.12858 16.3   724.12858    2  2  0   711.34087 77.7   724.12920
  0  0  0   724.67994 87.5   724.67994    2  2  0   711.89228 52.1   724.68061
  0  0  0   724.84861 90.0   724.84861    2  2  0   712.06027 89.3   724.84860
  0  0  0   725.14559 89.2   725.14559    2  2  0   712.35713 81.4   725.14546
  0  0  0   725.27920 81.8   725.27920    2  2  0   712.49126 51.9   725.27959
  0  0  0   725.66479 47.1   725.66479    2  2  0   712.87626 85.8   725.66459
  0  0  0   725.93545 38.2   725.93545    2  2  0   713.14715 79.4   725.93548
  0  0  0   725.97014 57.6   725.97014    2  2  0   713.18197 81.5   725.97030
  0  0  0   726.01400 56.7   726.01400    2  2  0   713.22580 78.1   726.01413
  0  0  0   726.01978 88.1   726.01978    2  2  0   713.23235 75.6   726.02068
  0  0  0   726.02993 66.3   726.02993    2  2  0   713.24205 74.2   726.03038
  0  0  0   726.51960 69.4   726.51960    2  2  0   713.73136 80.2   726.51969
  0  0  0   726.73986 89.4   726.73986    2  2  0   713.95127 84.0   726.73960
  0  0  0   726.84436 88.1   726.84436    2  2  0   714.05701 31.3   726.84534
  0  0  0   727.17319 72.1   727.17319    2  2  0   714.38537 78.4   727.17370
  0  0  0   727.24949 88.4   727.24949    2  2  0   714.46198 84.0   727.25031
  0  0  0   727.40261 77.8   727.40261    2  2  0   714.61490 85.0   727.40323
  0  0  0   727.52135 89.1   727.52135    2  2  0   714.73224 82.5   727.52057
  0  0  0   727.96890 86.5   727.96890    2  2  0   715.18135 88.3   727.96968
  0  0  0   727.99259 88.0   727.99259    2  2  0   715.20363 84.5   727.99196
  0  0  0   727.99816 56.4   727.99816    2  2  0   715.21001 70.5   727.99834
  0  0  0   728.15307 73.4   728.15307    2  2  0   715.36436 63.5   728.15269
  0  0  0   728.26079 89.6   728.26079    2  2  0   715.47217 86.7   728.26050
  0  0  0   728.27023 87.8   728.27023    2  2  0   715.48218 81.9   728.27051
  0  0  0   728.51773 87.4   728.51773    2  2  0   715.72929 60.1   728.51762
  0  0  0   728.62514 87.0   728.62514    2  2  0   715.83766 86.3   728.62599
  0  0  0   728.78243 89.4   728.78243    2  2  0   715.99467 74.8   728.78300
  0  0  0   729.02836 89.6   729.02836    2  2  0   716.23959 81.2   729.02792
  0  0  0   729.10680 86.6   729.10680    2  2  0   716.31820 86.4   729.10653
  0  0  0   729.50636 87.5   729.50636    2  2  0   716.71785 78.7   729.50618
  0  0  0   729.56067 86.4   729.56067    2  2  0   716.77168 77.9   729.56001
  0  0  0   730.08480 86.4   730.08480    2  2  0   717.29597 72.7   730.08430
  0  0  0   730.21579 82.3   730.21579    2  2  0   717.42705 72.4   730.21538
  0  0  0   730.35674 84.3   730.35674    2  2  0   717.56743 82.4   730.35576
  0  0  0   730.81609 81.0   730.81609    2  2  0   718.02818 82.3   730.81651
  0  0  0   731.00498 89.8   731.00498    2  2  0   718.21741 40.3   731.00574
  0  0  0   731.03347 76.2   731.03347    2  2  0   718.24543 77.8   731.03376
  0  0  0   731.15777 86.3   731.15777    2  2  0   718.36854 88.6   731.15687
  0  0  0   731.31349 88.6   731.31349    2  2  0   718.52427 80.3   731.31260
  0  0  0   731.46795 80.1   731.46795    2  2  0   718.68040 89.0   731.46873
  0  0  0   731.50542 47.8   731.50542    2  2  0   718.71797 74.9   731.50630

 Searching   2  1  1 near    729.63091
 No   1:   1  0  1        1.39995  reg   723.231 -   733.231
 No   2:   2  2  1       12.77805  reg   711.853 -   721.853
 No   3:   3  2  1       17.02892  reg   707.602 -   717.602
  1  0  1   723.27128 87.4   724.67123    2  2  1   711.89228 52.1   724.67033
  1  0  1   723.27661 87.2   724.67656    2  2  1   711.89846 56.1   724.67651
  1  0  1   723.50634 90.0   724.90629    3  2  1   707.87793 44.2   724.90685
  1  0  1   723.55253 85.7   724.95248    3  2  1   707.92422 72.6   724.95314
  1  0  1   723.58201 45.8   724.98196    2  2  1   712.20413 89.9   724.98218
  1  0  1   723.70610 76.8   725.10605    3  2  1   708.07661 78.3   725.10553
  1  0  1   723.72936 89.7   725.12931    2  2  1   712.35160 84.2   725.12965
  1  0  1   723.76860 72.2   725.16855    3  2  1   708.13933 83.7   725.16825
  1  0  1   724.15294 85.1   725.55289    3  2  1   708.52433 85.2   725.55325
  1  0  1   724.18413 88.1   725.58408    2  2  1   712.80588 88.9   725.58393
  1  0  1   724.24364 38.7   725.64359    3  2  1   708.61393 80.5   725.64285
  1  0  1   724.39301 88.9   725.79296    3  2  1   708.76487 79.3   725.79379
  1  0  1   724.49503 83.5   725.89498    2  2  1   713.11662 89.6   725.89467
  1  0  1   724.53098 24.7   725.93093    2  2  1   713.15372 84.2   725.93177
  1  0  1   724.56107 29.3   725.96102    2  2  1   713.18197 81.5   725.96002
  1  0  1   724.58507 84.8   725.98502    3  2  1   708.95663 81.9   725.98555
  1  0  1   724.75559 39.7   726.15554    2  2  1   713.37710 88.1   726.15515
  1  0  1   724.82851 17.1   726.22846    2  2  1   713.44949 58.9   726.22754
  1  0  1   724.88765 25.0   726.28760    2  2  1   713.50998 51.8   726.28803
  1  0  1   724.97043 84.5   726.37038    3  2  1   709.34220 77.8   726.37112
  1  0  1   724.97939 88.9   726.37934    3  2  1   709.35116 65.0   726.38008
  1  0  1   725.10943 85.8   726.50938    2  2  1   713.73136 80.2   726.50941
  1  0  1   725.43020 31.4   726.83015    2  2  1   714.05126 87.9   726.82931
  1  0  1   725.43451 40.3   726.83446    2  2  1   714.05701 31.3   726.83506
  1  0  1   725.44572 76.5   726.84567    3  2  1   709.81753 84.4   726.84645
  1  0  1   725.65830 74.5   727.05825    3  2  1   710.03032 68.2   727.05924
  1  0  1   725.80491 87.2   727.20486    3  2  1   710.17603 82.6   727.20495
  1  0  1   725.91703 68.5   727.31698    3  2  1   710.28866 89.5   727.31758
  1  0  1   726.01400 56.7   727.41395    3  2  1   710.38560 89.2   727.41452
  1  0  1   726.11352 90.0   727.51347    3  2  1   710.48368 66.9   727.51260
  1  0  1   726.15216 11.7   727.55211    2  2  1   714.77464 89.3   727.55269
  1  0  1   726.16794 79.2   727.56789    2  2  1   714.78958 23.5   727.56763
  1  0  1   726.18236 78.6   727.58231    2  2  1   714.80385 76.6   727.58190
  1  0  1   726.22587 85.7   727.62582    3  2  1   710.59687 74.7   727.62579
  1  0  1   726.25580 37.3   727.65575    2  2  1   714.87829 87.2   727.65634
  1  0  1   726.26588 66.0   727.66583    3  2  1   710.63618 40.6   727.66510
  1  0  1   726.35597 71.5   727.75592    3  2  1   710.72684 87.6   727.75576
  1  0  1   726.39149 87.5   727.79144    3  2  1   710.76342 77.2   727.79234
  1  0  1   726.58208 54.3   727.98203    2  2  1   715.20363 84.5   727.98168
  1  0  1   726.58905 60.5   727.98900    2  2  1   715.21001 70.5   727.98806
  1  0  1   726.72524 56.2   728.12519    3  2  1   711.09685 83.8   728.12577
  1  0  1   726.84436 88.1   728.24431    2  2  1   715.46675 69.8   728.24480
  1  0  1   726.95689 48.3   728.35684    2  2  1   715.57921 81.2   728.35726
  1  0  1   726.97214 75.3   728.37209    2  2  1   715.59478 77.5   728.37283
  1  0  1   727.11298 46.5   728.51293    3  2  1   711.48398 68.4   728.51290
  1  0  1   727.17319 72.1   728.57314    2  2  1   715.79422 75.8   728.57227
  1  0  1   727.21096 89.9   728.61091    2  2  1   715.83213 83.9   728.61018
                                          3  2  1   711.58254 89.2   728.61146
  1  0  1   727.32133 87.5   728.72128    2  2  1   715.94256 78.8   728.72061
  1  0  1   727.40261 77.8   728.80256    2  2  1   716.02448 47.3   728.80253
  1  0  1   727.52135 89.1   728.92130    3  2  1   711.89228 52.1   728.92120
  1  0  1   727.57268 87.0   728.97263    2  2  1   716.19540 82.9   728.97345
  1  0  1   727.57912 70.4   728.97907    2  2  1   716.20101 55.1   728.97906
  1  0  1   727.60946 80.8   729.00941    2  2  1   716.23091 84.9   729.00896
  1  0  1   727.75797 83.2   729.15792    2  2  1   716.37928 88.5   729.15733
  1  0  1   727.86442 86.4   729.26437    2  2  1   716.48647 85.9   729.26452
  1  0  1   727.94368 90.0   729.34363    3  2  1   712.31407 89.3   729.34299
  1  0  1   728.12427 88.2   729.52422    2  2  1   716.74568 83.2   729.52373
  1  0  1   728.19906 58.2   729.59901    2  2  1   716.82066 89.8   729.59871
  1  0  1   728.20514 87.1   729.60509    2  2  1   716.82637 80.8   729.60442
  1  0  1   728.28616 80.4   729.68611    2  2  1   716.90905 85.7   729.68710
  1  0  1   728.76274 35.0   730.16269    2  2  1   717.38436 89.4   730.16241
  1  0  1   728.77654 40.1   730.17649    3  2  1   713.14715 79.4   730.17607
  1  0  1   728.78243 89.4   730.18238    2  2  1   717.40379 89.1   730.18184
                                          3  2  1   713.15372 84.2   730.18264
  1  0  1   728.78628 76.1   730.18623    2  2  1   717.40867 80.8   730.18672
  1  0  1   729.34550 81.2   730.74545    2  2  1   717.96820 79.5   730.74625
  1  0  1   729.35529 89.5   730.75524    3  2  1   713.72700 76.8   730.75592
  1  0  1   729.36083 37.1   730.76078    3  2  1   713.73136 80.2   730.76028
  1  0  1   729.54138 73.6   730.94133    2  2  1   718.16313 84.3   730.94118
  1  0  1   729.98836 89.6   731.38831    2  2  1   718.61017 69.5   731.38822
  1  0  1   730.08480 86.4   731.48475    2  2  1   718.70705 74.1   731.48510
  1  0  1   730.20202 77.0   731.60197    3  2  1   714.57247 70.0   731.60139
  1  0  1   730.21579 82.3   731.61574    2  2  1   718.83781 88.6   731.61586
  1  0  1   730.36163 78.5   731.76158    3  2  1   714.73224 82.5   731.76116
  1  0  1   730.42547 54.8   731.82542    3  2  1   714.79570 81.5   731.82462
  1  0  1   730.46252 82.0   731.86247    2  2  1   719.08381 84.7   731.86186
  1  0  1   730.57146 65.6   731.97141    2  2  1   719.19360 89.2   731.97165
  1  0  1   730.73574 89.7   732.13569    2  2  1   719.35862  5.0   732.13667
                                          3  2  1   715.10651 68.1   732.13543
  1  0  1   730.76333 84.5   732.16328    2  2  1   719.38443 88.8   732.16248
  1  0  1   730.78186 82.8   732.18181    3  2  1   715.15345 89.7   732.18237
  1  0  1   730.92264 73.0   732.32259    3  2  1   715.29404 85.3   732.32296
  1  0  1   731.00498 89.8   732.40493    2  2  1   719.62644 77.4   732.40449
  1  0  1   731.03347 76.2   732.43342    3  2  1   715.40353 67.3   732.43245
  1  0  1   731.09574 47.4   732.49569    2  2  1   719.71820 86.6   732.49625
                                          3  2  1   715.46675 69.8   732.49567
  1  0  1   731.26520 87.0   732.66515    2  2  1   719.88767 62.0   732.66572
  1  0  1   731.90303 78.5   733.30298    2  2  1   720.52465 77.4   733.30270
  1  0  1   732.23160 53.7   733.63155    3  2  1   716.60296 86.1   733.63188
  1  0  1   732.35531 77.9   733.75526    3  2  1   716.72733 82.5   733.75625
  1  0  1   732.73266 86.3   734.13261    3  2  1   717.10425 82.2   734.13317
  1  0  1   732.75455 83.3   734.15450    2  2  1   721.37635 71.8   734.15440
                                          3  2  1   717.12499 89.0   734.15391
  1  0  1   732.77963 73.7   734.17958    3  2  1   717.15072 85.4   734.17964
  1  0  1   732.85356 46.4   734.25351    2  2  1   721.47579 86.3   734.25384
  1  0  1   733.03243 83.2   734.43238    3  2  1   717.40379 89.1   734.43271
  1  0  1   733.03725 89.7   734.43720    3  2  1   717.40867 80.8   734.43759
  2  2  1   712.19321 66.6   724.97126    3  2  1   707.94292 67.5   724.97184
  2  2  1   713.30901 73.5   726.08706    3  2  1   709.05797 89.3   726.08689
  2  2  1   713.34181 86.9   726.11986    3  2  1   709.09063 76.0   726.11955
  2  2  1   713.99508 75.9   726.77313    3  2  1   709.74469 68.4   726.77361
  2  2  1   714.06287 89.3   726.84092    3  2  1   709.81288 88.8   726.84180
  2  2  1   714.12869 77.2   726.90674    3  2  1   709.87843 73.8   726.90735
  2  2  1   715.29404 85.3   728.07209    3  2  1   711.04251 62.2   728.07143
  2  2  1   715.89467 88.3   728.67272    3  2  1   711.64334 68.9   728.67226
  2  2  1   715.99467 74.8   728.77272    3  2  1   711.74472 49.7   728.77364
  2  2  1   716.03856 83.2   728.81661    3  2  1   711.78712 71.3   728.81604
  2  2  1   716.14889 79.4   728.92694    3  2  1   711.89846 56.1   728.92738
  2  2  1   716.17308 86.1   728.95113    3  2  1   711.92144 88.0   728.95036
  2  2  1   716.60296 86.1   729.38101    3  2  1   712.35160 84.2   729.38052
  2  2  1   717.29597 72.7   730.07402    3  2  1   713.04524 67.9   730.07416
  2  2  1   717.31448 76.2   730.09253    3  2  1   713.06387 71.9   730.09279
  2  2  1   717.40379 89.1   730.18184    3  2  1   713.15372 84.2   730.18264
  2  2  1   717.49205 87.5   730.27010    3  2  1   713.24205 74.2   730.27097
  2  2  1   717.61117 74.4   730.38922    3  2  1   713.36080 82.7   730.38972
  2  2  1   717.70109 74.0   730.47914    3  2  1   713.44949 58.9   730.47841
  2  2  1   717.88296 88.0   730.66101    3  2  1   713.63190 79.0   730.66082
  2  2  1   717.96820 79.5   730.74625    3  2  1   713.71795 72.3   730.74687
  2  2  1   718.09636 90.0   730.87441    3  2  1   713.84504 63.7   730.87396
  2  2  1   718.20209 71.3   730.98014    3  2  1   713.95127 84.0   730.98019
  2  2  1   718.24543 77.8   731.02348    3  2  1   713.99508 75.9   731.02400
  2  2  1   718.29096 84.1   731.06901    3  2  1   714.04108 68.5   731.07000
  2  2  1   718.48540 89.8   731.26345    3  2  1   714.23546 79.2   731.26438
  2  2  1   718.69806 85.9   731.47611    3  2  1   714.44807 76.8   731.47699
  2  2  1   718.71239 71.0   731.49044    3  2  1   714.46198 84.0   731.49090
  2  2  1   719.05409 65.4   731.83214    3  2  1   714.80385 76.6   731.83277
  2  2  1   719.43281 80.8   732.21086    3  2  1   715.18135 88.3   732.21027
  2  2  1   719.71820 86.6   732.49625    3  2  1   715.46675 69.8   732.49567
  2  2  1   719.73891 87.5   732.51696    3  2  1   715.48772 80.1   732.51664
  2  2  1   719.76602 86.1   732.54407    3  2  1   715.51474 75.5   732.54366
  2  2  1   719.83055 84.3   732.60860    3  2  1   715.57921 81.2   732.60813
  2  2  1   719.84519 87.0   732.62324    3  2  1   715.59478 77.5   732.62370
  2  2  1   719.85570  0.5   732.63375    3  2  1   715.60387 86.9   732.63279
  2  2  1   720.04421  1.3   732.82226    3  2  1   715.79422 75.8   732.82314
  2  2  1   720.22823 82.8   733.00628    3  2  1   715.97758 87.0   733.00650
  2  2  1   720.36146 68.0   733.13951    3  2  1   716.11017 86.7   733.13909
  2  2  1   720.39896 77.1   733.17701    3  2  1   716.14889 79.4   733.17781
  2  2  1   720.44604 86.9   733.22409    3  2  1   716.19540 82.9   733.22432
  2  2  1   720.49816 85.5   733.27621    3  2  1   716.24817 88.8   733.27709
  2  2  1   720.51349  8.8   733.29154    3  2  1   716.26235 83.2   733.29127
  2  2  1   720.55777 74.4   733.33582    3  2  1   716.30633 84.2   733.33525
  2  2  1   720.71870 17.4   733.49675    3  2  1   716.46706 81.6   733.49598
  2  2  1   720.78314 80.7   733.56119    3  2  1   716.53299 88.4   733.56191
  2  2  1   720.82218 89.5   733.60023    3  2  1   716.57047 79.9   733.59939
  2  2  1   720.90651 59.6   733.68456    3  2  1   716.65531 78.8   733.68423
  2  2  1   721.07061 59.6   733.84866    3  2  1   716.82066 89.8   733.84958
  2  2  1   721.37635 71.8   734.15440    3  2  1   717.12499 89.0   734.15391
  2  2  1   721.39088 85.3   734.16893    3  2  1   717.14071 80.2   734.16963
  2  2  1   721.43756 26.1   734.21561    3  2  1   717.18608 88.8   734.21500
  2  2  1   721.54617 70.4   734.32422    3  2  1   717.29597 72.7   734.32489
  2  2  1   721.61612 89.6   734.39417    3  2  1   717.36580 85.2   734.39472
  2  2  1   721.62233 50.7   734.40038    3  2  1   717.37141 89.5   734.40033
  2  2  1   721.67822 82.2   734.45627    3  2  1   717.42705 72.4   734.45597
  2  2  1   721.77770 65.8   734.55575    3  2  1   717.52699 83.0   734.55591
  2  2  1   721.80244 89.6   734.58049    3  2  1   717.55226 88.7   734.58118

 Searching   3  1  2 near    734.08145
 No   1:   2  0  2        4.18956  reg   724.892 -   734.892
 No   2:   3  2  2       16.97774  reg   712.104 -   722.104
 No   3:   4  2  2       22.72108  reg   706.360 -   716.360
  2  0  2   725.14559 89.2   729.33515    3  2  2   712.35713 81.4   729.33487
  2  0  2   725.27920 81.8   729.46876    3  2  2   712.49126 51.9   729.46900
                                          4  2  2   706.74829 88.7   729.46937
  2  0  2   725.65830 74.5   729.84786    4  2  2   707.12723 32.6   729.84831
  2  0  2   725.66479 47.1   729.85435    3  2  2   712.87626 85.8   729.85400
  2  0  2   725.93545 38.2   730.12501    3  2  2   713.14715 79.4   730.12489
  2  0  2   725.97014 57.6   730.15970    3  2  2   713.18197 81.5   730.15971
  2  0  2   726.01400 56.7   730.20356    3  2  2   713.22580 78.1   730.20354
  2  0  2   726.01978 88.1   730.20934    3  2  2   713.23235 75.6   730.21009
  2  0  2   726.02993 66.3   730.21949    3  2  2   713.24205 74.2   730.21979
  2  0  2   726.17254 88.0   730.36210    4  2  2   707.64025 87.0   730.36133
  2  0  2   726.51960 69.4   730.70916    3  2  2   713.73136 80.2   730.70910
  2  0  2   726.63223 51.5   730.82179    3  2  2   713.84504 63.7   730.82278
  2  0  2   726.73986 89.4   730.92942    3  2  2   713.95127 84.0   730.92901
  2  0  2   726.78800 79.5   730.97756    4  2  2   708.25720 87.1   730.97828
  2  0  2   726.84436 88.1   731.03392    3  2  2   714.05701 31.3   731.03475
  2  0  2   727.17319 72.1   731.36275    3  2  2   714.38537 78.4   731.36311
  2  0  2   727.24949 88.4   731.43905    3  2  2   714.46198 84.0   731.43972
  2  0  2   727.40261 77.8   731.59217    3  2  2   714.61490 85.0   731.59264
  2  0  2   727.52135 89.1   731.71091    3  2  2   714.73224 82.5   731.70998
  2  0  2   727.55367 88.0   731.74323    4  2  2   709.02209 86.4   731.74317
  2  0  2   727.57268 87.0   731.76224    4  2  2   709.04213 70.2   731.76321
  2  0  2   727.96890 86.5   732.15846    3  2  2   715.18135 88.3   732.15909
  2  0  2   727.99259 88.0   732.18215    3  2  2   715.20363 84.5   732.18137
  2  0  2   727.99816 56.4   732.18772    3  2  2   715.21001 70.5   732.18775
  2  0  2   728.03997 68.4   732.22953    4  2  2   709.50913 67.5   732.23021
  2  0  2   728.15307 73.4   732.34263    3  2  2   715.36436 63.5   732.34210
  2  0  2   728.19906 58.2   732.38862    4  2  2   709.66802 84.1   732.38910
  2  0  2   728.20514 87.1   732.39470    4  2  2   709.67321 82.5   732.39429
  2  0  2   728.26079 89.6   732.45035    3  2  2   715.47217 86.7   732.44991
  2  0  2   728.27023 87.8   732.45979    3  2  2   715.48218 81.9   732.45992
  2  0  2   728.31094 88.2   732.50050    4  2  2   709.77983 81.9   732.50091
  2  0  2   728.51773 87.4   732.70729    3  2  2   715.72929 60.1   732.70703
  2  0  2   728.62514 87.0   732.81470    3  2  2   715.83766 86.3   732.81540
  2  0  2   728.78243 89.4   732.97199    3  2  2   715.99467 74.8   732.97241
  2  0  2   728.84306 57.5   733.03262    4  2  2   710.31099 87.1   733.03207
  2  0  2   728.88026 65.3   733.06982    4  2  2   710.34781 78.5   733.06889
  2  0  2   728.99197 87.7   733.18153    4  2  2   710.46049 76.4   733.18157
  2  0  2   729.02836 89.6   733.21792    3  2  2   716.23959 81.2   733.21733
  2  0  2   729.10680 86.6   733.29636    3  2  2   716.31820 86.4   733.29594
  2  0  2   729.50636 87.5   733.69592    3  2  2   716.71785 78.7   733.69559
  2  0  2   729.56067 86.4   733.75023    3  2  2   716.77168 77.9   733.74942
  2  0  2   729.91090 69.6   734.10046    4  2  2   711.37980 78.7   734.10088
  2  0  2   730.08480 86.4   734.27436    3  2  2   717.29597 72.7   734.27371
  2  0  2   730.21579 82.3   734.40535    3  2  2   717.42705 72.4   734.40479
  2  0  2   730.59265 88.3   734.78221    4  2  2   712.06027 89.3   734.78135
  2  0  2   730.73574 89.7   734.92530    4  2  2   712.20413 89.9   734.92521
  2  0  2   730.81609 81.0   735.00565    3  2  2   718.02818 82.3   735.00592
  2  0  2   730.93753 86.0   735.12709    4  2  2   712.40546 76.9   735.12654
  2  0  2   731.00498 89.8   735.19454    3  2  2   718.21741 40.3   735.19515
  2  0  2   731.03347 76.2   735.22303    3  2  2   718.24543 77.8   735.22317
                                          4  2  2   712.50249 72.2   735.22357
  2  0  2   731.46795 80.1   735.65751    3  2  2   718.68040 89.0   735.65814
  2  0  2   731.50542 47.8   735.69498    3  2  2   718.71797 74.9   735.69571
  2  0  2   731.64721 70.4   735.83677    4  2  2   713.11662 89.6   735.83770
  2  0  2   732.00604 74.4   736.19560    3  2  2   719.21749 82.3   736.19523
  2  0  2   732.42695 83.7   736.61651    4  2  2   713.89621 82.7   736.61729
  2  0  2   732.59677 73.5   736.78633    3  2  2   719.80924 72.8   736.78698
  2  0  2   732.79546 87.0   736.98502    3  2  2   720.00724 26.8   736.98498
  2  0  2   732.89064 36.9   737.08020    3  2  2   720.10257 41.7   737.08031
  2  0  2   732.91154 64.2   737.10110    3  2  2   720.12317  0.8   737.10091
  2  0  2   732.91691 57.0   737.10647    3  2  2   720.12853 53.9   737.10627
                                          4  2  2   714.38537 78.4   737.10645
  2  0  2   733.63876 71.5   737.82832    3  2  2   720.85053 65.8   737.82827
                                          4  2  2   715.10651 68.1   737.82759
  2  0  2   734.01782 73.1   738.20738    3  2  2   721.22927 86.6   738.20701
  2  0  2   734.08945 89.3   738.27901    3  2  2   721.30207 87.5   738.27981
  2  0  2   734.20729 25.4   738.39685    3  2  2   721.41847 52.8   738.39621
                                          4  2  2   715.67628 89.8   738.39736
  2  0  2   734.31579 83.4   738.50535    3  2  2   721.52798 47.8   738.50572
                                          4  2  2   715.78408 89.2   738.50516
  2  0  2   734.54262 60.6   738.73218    3  2  2   721.75527 86.9   738.73301
  2  0  2   734.64165 90.0   738.83121    4  2  2   716.11017 86.7   738.83125
  2  0  2   734.79427 89.7   738.98383    3  2  2   722.00627 85.9   738.98401
                                          4  2  2   716.26235 83.2   738.98343
  2  0  2   734.81477 87.5   739.00433    3  2  2   722.02708 75.8   739.00482
                                          4  2  2   716.28302 73.4   739.00410
  2  0  2   734.83758 79.4   739.02714    4  2  2   716.30633 84.2   739.02741
  2  0  2   734.84460 83.1   739.03416    4  2  2   716.31234 87.6   739.03342
  3  2  2   712.49126 51.9   729.46900    4  2  2   706.74829 88.7   729.46937
  3  2  2   712.68056 71.0   729.65830    4  2  2   706.93785 74.9   729.65893
  3  2  2   713.06387 71.9   730.04161    4  2  2   707.32131 87.2   730.04239
  3  2  2   713.23235 75.6   730.21009    4  2  2   707.48940 62.5   730.21048
  3  2  2   715.09418 80.1   732.07192    4  2  2   709.35116 65.0   732.07224
  3  2  2   715.28849 78.4   732.26623    4  2  2   709.54444 77.8   732.26552
  3  2  2   715.48772 80.1   732.46546    4  2  2   709.74469 68.4   732.46577
  3  2  2   715.57921 81.2   732.55695    4  2  2   709.83687 73.1   732.55795
  3  2  2   716.06314 77.7   733.04088    4  2  2   710.31974 36.2   733.04082
  3  2  2   716.37928 88.5   733.35702    4  2  2   710.63618 40.6   733.35726
  3  2  2   716.53299 88.4   733.51073    4  2  2   710.78998 89.2   733.51106
  3  2  2   718.24543 77.8   735.22317    4  2  2   712.50249 72.2   735.22357
  3  2  2   718.86031 78.8   735.83805    4  2  2   713.11662 89.6   735.83770
  3  2  2   719.19360 89.2   736.17134    4  2  2   713.44949 58.9   736.17057
  3  2  2   719.73891 87.5   736.71665    4  2  2   713.99508 75.9   736.71616
  3  2  2   719.78494 88.6   736.76268    4  2  2   714.04108 68.5   736.76216
  3  2  2   719.79434 83.3   736.77208    4  2  2   714.05126 87.9   736.77234
  3  2  2   720.12853 53.9   737.10627    4  2  2   714.38537 78.4   737.10645
  3  2  2   720.62212 73.4   737.59986    4  2  2   714.87829 87.2   737.59937
  3  2  2   720.76094 87.9   737.73868    4  2  2   715.01777 87.7   737.73885
  3  2  2   720.85053 65.8   737.82827    4  2  2   715.10651 68.1   737.82759
  3  2  2   720.90651 59.6   737.88425    4  2  2   715.16375 66.7   737.88483
  3  2  2   721.15706 81.7   738.13480    4  2  2   715.41339 85.3   738.13447
  3  2  2   721.21498 85.1   738.19272    4  2  2   715.47217 86.7   738.19325
  3  2  2   721.36130 83.3   738.33904    4  2  2   715.61828 81.9   738.33936
  3  2  2   721.49621 90.0   738.47395    4  2  2   715.75283 84.1   738.47391
  3  2  2   721.52798 47.8   738.50572    4  2  2   715.78408 89.2   738.50516
  3  2  2   721.55532 61.6   738.53306    4  2  2   715.81117 89.2   738.53225
  3  2  2   721.66764 85.7   738.64538    4  2  2   715.92426 81.6   738.64534
  3  2  2   721.77770 65.8   738.75544    4  2  2   716.03426 82.7   738.75534
  3  2  2   721.83706 86.5   738.81480    4  2  2   716.09414 85.2   738.81522
  3  2  2   721.87437 63.3   738.85211    4  2  2   716.13172 76.1   738.85280
  3  2  2   721.93952 84.1   738.91726    4  2  2   716.19540 82.9   738.91648
  3  2  2   721.95549 59.9   738.93323    4  2  2   716.21192 86.8   738.93300
  3  2  2   722.00627 85.9   738.98401    4  2  2   716.26235 83.2   738.98343
  3  2  2   722.01538 67.4   738.99312    4  2  2   716.27225 85.5   738.99333
  3  2  2   722.02708 75.8   739.00482    4  2  2   716.28302 73.4   739.00410

 Searching   4  1  3 near    740.00245
 No   1:   3  0  3        8.34844  reg   726.654 -   736.654
 No   2:   4  2  3       22.56924  reg   712.433 -   722.433
 No   3:   5  2  3       29.89272  reg   705.110 -   715.110
  3  0  3   726.81548 31.9   735.16392    4  2  3   712.59523 78.5   735.16447
  3  0  3   727.15718 81.7   735.50562    5  2  3   705.61294 85.3   735.50566
  3  0  3   727.40261 77.8   735.75105    4  2  3   713.18197 81.5   735.75121
  3  0  3   727.45385 84.7   735.80229    4  2  3   713.23235 75.6   735.80159
  3  0  3   727.52978 86.9   735.87822    4  2  3   713.30901 73.5   735.87825
  3  0  3   727.54450 84.8   735.89294    4  2  3   713.32360 88.7   735.89284
                                          5  2  3   706.00002 86.7   735.89274
  3  0  3   727.61965 45.1   735.96809    5  2  3   706.07617 69.8   735.96889
  3  0  3   727.66972 84.6   736.01816    4  2  3   713.44949 58.9   736.01873
  3  0  3   727.80058 88.8   736.14902    4  2  3   713.57931 89.5   736.14855
  3  0  3   727.94368 90.0   736.29212    5  2  3   706.39953 79.0   736.29225
  3  0  3   728.05531 61.6   736.40375    5  2  3   706.51065 74.7   736.40337
  3  0  3   728.39516 88.1   736.74360    4  2  3   714.17527 69.8   736.74451
  3  0  3   728.75708 89.8   737.10552    4  2  3   714.53639 82.7   737.10563
  3  0  3   728.76274 35.0   737.11118    4  2  3   714.54262 57.3   737.11186
  3  0  3   729.42517 84.9   737.77361    4  2  3   715.20363 84.5   737.77287
  3  0  3   729.43041 81.1   737.77885    4  2  3   715.21001 70.5   737.77925
  3  0  3   729.46168 81.2   737.81012    4  2  3   715.24075 53.5   737.80999
  3  0  3   729.58495 85.5   737.93339    4  2  3   715.36436 63.5   737.93360
  3  0  3   729.59897 89.6   737.94741    5  2  3   708.05556 48.6   737.94828
  3  0  3   729.91702 86.1   738.26546    4  2  3   715.69557 84.0   738.26481
  3  0  3   730.21579 82.3   738.56423    4  2  3   715.99467 74.8   738.56391
  3  0  3   730.27788 83.7   738.62632    4  2  3   716.05723 83.9   738.62647
  3  0  3   730.57146 65.6   738.91990    5  2  3   709.02685 87.4   738.91957
  3  0  3   730.61775 82.6   738.96619    4  2  3   716.39787 86.0   738.96711
  3  0  3   730.81609 81.0   739.16453    4  2  3   716.59559 59.3   739.16483
  3  0  3   730.89597 88.8   739.24441    5  2  3   709.35116 65.0   739.24388
  3  0  3   731.28897 88.6   739.63741    5  2  3   709.74469 68.4   739.63741
  3  0  3   731.40088 88.1   739.74932    4  2  3   717.18040 70.3   739.74964
  3  0  3   731.64721 70.4   739.99565    4  2  3   717.42705 72.4   739.99629
  3  0  3   732.83102 78.7   741.17946    4  2  3   718.61017 69.5   741.17941
                                          5  2  3   711.28674 79.5   741.17946
  3  0  3   732.85356 46.4   741.20200    4  2  3   718.63297 89.7   741.20221
  3  0  3   732.89064 36.9   741.23908    4  2  3   718.66924 84.4   741.23848
  3  0  3   732.89655 84.7   741.24499    4  2  3   718.67499 11.8   741.24423
  3  0  3   732.90205 30.1   741.25049    4  2  3   718.68040 89.0   741.24964
  3  0  3   733.02758 87.7   741.37602    5  2  3   711.48398 68.4   741.37670
  3  0  3   733.12596 81.3   741.47440    5  2  3   711.58254 89.2   741.47526
  3  0  3   733.55846 41.9   741.90690    4  2  3   719.33790 18.7   741.90714
  3  0  3   734.17073 77.6   742.51917    4  2  3   719.94961  7.2   742.51885
  3  0  3   734.28192 41.5   742.63036    4  2  3   720.06080  6.0   742.63004
  3  0  3   734.29242 52.5   742.64086    4  2  3   720.07161  9.7   742.64085
  3  0  3   734.31579 83.4   742.66423    4  2  3   720.09401  1.1   742.66325
  3  0  3   734.83758 79.4   743.18602    4  2  3   720.61646 89.2   743.18570
  3  0  3   734.88539 89.4   743.23383    5  2  3   713.34181 86.9   743.23453
  3  0  3   734.98840 89.6   743.33684    4  2  3   720.76717 69.3   743.33641
  3  0  3   735.39125 88.1   743.73969    4  2  3   721.17137 80.8   743.74061
  3  0  3   735.50393 81.5   743.85237    4  2  3   721.28222 73.8   743.85146
  3  0  3   735.53859 46.6   743.88703    5  2  3   713.99508 75.9   743.88780
  3  0  3   735.54850 88.4   743.89694    4  2  3   721.32857 87.6   743.89781
  3  0  3   735.64860 88.3   743.99704    4  2  3   721.42832 78.8   743.99756
  3  0  3   735.84299 90.0   744.19143    4  2  3   721.62233 50.7   744.19157
  3  0  3   736.15962 88.7   744.50806    4  2  3   721.93952 84.1   744.50876
                                          5  2  3   714.61490 85.0   744.50762
  3  0  3   736.33469 74.5   744.68313    4  2  3   722.11414 76.3   744.68338
                                          5  2  3   714.78958 23.5   744.68230
  3  0  3   736.34038 34.4   744.68882    5  2  3   714.79570 81.5   744.68842
  3  0  3   736.47509 46.6   744.82353    5  2  3   714.93120 87.8   744.82392
  3  0  3   736.57866 86.8   744.92710    5  2  3   715.03360 87.7   744.92632
  3  0  3   736.65016 87.9   744.99860    5  2  3   715.10651 68.1   744.99923
  4  2  3   712.87626 85.8   735.44550    5  2  3   705.55180 85.8   735.44452
  4  2  3   713.10249 89.2   735.67173    5  2  3   705.77805 78.4   735.67077
  4  2  3   713.32360 88.7   735.89284    5  2  3   706.00002 86.7   735.89274
  4  2  3   713.97604 46.8   736.54528    5  2  3   706.65161 85.6   736.54433
  4  2  3   714.54945 69.8   737.11869    5  2  3   707.22645 71.2   737.11917
  4  2  3   715.31640 84.7   737.88564    5  2  3   707.99325 80.6   737.88597
  4  2  3   715.37997 78.7   737.94921    5  2  3   708.05556 48.6   737.94828
  4  2  3   715.60387 86.9   738.17311    5  2  3   708.27998 84.6   738.17270
  4  2  3   716.48647 85.9   739.05571    5  2  3   709.16232 59.5   739.05504
  4  2  3   716.68010 80.3   739.24934    5  2  3   709.35669 85.4   739.24941
  4  2  3   717.10425 82.2   739.67349    5  2  3   709.77983 81.9   739.67255
  4  2  3   717.14071 80.2   739.70995    5  2  3   709.81753 84.4   739.71025
  4  2  3   717.19222 53.9   739.76146    5  2  3   709.86923 81.6   739.76195
  4  2  3   717.48642 82.9   740.05566    5  2  3   710.16247 78.2   740.05519
  4  2  3   717.49961 74.1   740.06885    5  2  3   710.17603 82.6   740.06875
  4  2  3   717.61117 74.4   740.18041    5  2  3   710.28866 89.5   740.18138
  4  2  3   717.70926 85.5   740.27850    5  2  3   710.38560 89.2   740.27832
  4  2  3   718.24543 77.8   740.81467    5  2  3   710.92117 89.7   740.81389
  4  2  3   718.50872 81.6   741.07796    5  2  3   711.18485 87.5   741.07757
  4  2  3   718.61017 69.5   741.17941    5  2  3   711.28674 79.5   741.17946
  4  2  3   718.66483 83.1   741.23407    5  2  3   711.34087 77.7   741.23359
  4  2  3   718.96717 89.4   741.53641    5  2  3   711.64334 68.9   741.53606
  4  2  3   719.38443 88.8   741.95367    5  2  3   712.06027 89.3   741.95299
  4  2  3   720.12853 53.9   742.69777    5  2  3   712.80588 88.9   742.69860
  4  2  3   720.44604 86.9   743.01528    5  2  3   713.12196 75.6   743.01468
  4  2  3   720.65183 63.3   743.22107    5  2  3   713.32888 79.9   743.22160
  4  2  3   721.38133 86.3   743.95057    5  2  3   714.05701 31.3   743.94973
  4  2  3   721.85001 85.5   744.41925    5  2  3   714.52642 84.5   744.41914
  4  2  3   721.99319 88.2   744.56243    5  2  3   714.66942 68.3   744.56214
  4  2  3   722.34093 74.7   744.91017    5  2  3   715.01777 87.7   744.91049

 Searching   5  1  4 near    747.38154
 No   1:   4  0  4       13.84736  reg   728.534 -   738.534
 No   2:   5  2  4       29.54562  reg   712.836 -   722.836
 No   3:   6  2  4       38.57011  reg   703.811 -   713.811
  4  0  4   728.74267 82.8   742.59003    5  2  4   713.04524 67.9   742.59086
  4  0  4   728.76274 35.0   742.61010    5  2  4   713.06387 71.9   742.60949
  4  0  4   728.88026 65.3   742.72762    5  2  4   713.18197 81.5   742.72759
  4  0  4   729.42517 84.9   743.27253    5  2  4   713.72700 76.8   743.27262
  4  0  4   729.43041 81.1   743.27777    5  2  4   713.73136 80.2   743.27698
  4  0  4   729.53555 88.3   743.38291    6  2  4   704.81315 71.0   743.38326
  4  0  4   730.22496 79.0   744.07232    5  2  4   714.52642 84.5   744.07204
  4  0  4   730.24071 81.9   744.08807    5  2  4   714.54262 57.3   744.08824
  4  0  4   730.31283 78.3   744.16019    5  2  4   714.61490 85.0   744.16052
  4  0  4   730.34190 80.2   744.18926    6  2  4   705.61887 28.5   744.18898
  4  0  4   730.48076 88.8   744.32812    6  2  4   705.75840 86.5   744.32851
  4  0  4   730.89032 52.0   744.73768    5  2  4   715.19126 85.0   744.73688
  4  0  4   731.29358 80.6   745.14094    5  2  4   715.59478 77.5   745.14040
  4  0  4   731.45970 81.3   745.30706    6  2  4   706.73697 85.8   745.30708
  4  0  4   731.49319 76.7   745.34055    5  2  4   715.79422 75.8   745.33984
  4  0  4   731.78194 49.3   745.62930    5  2  4   716.08306 87.6   745.62868
  4  0  4   732.17932 72.5   746.02668    5  2  4   716.48165 76.7   746.02727
  4  0  4   732.21120 84.8   746.05856    6  2  4   707.48940 62.5   746.05951
  4  0  4   732.23160 53.7   746.07896    5  2  4   716.53299 88.4   746.07861
  4  0  4   732.89064 36.9   746.73800    5  2  4   717.19222 53.9   746.73784
  4  0  4   733.02758 87.7   746.87494    5  2  4   717.32980 76.7   746.87542
  4  0  4   733.12596 81.3   746.97332    5  2  4   717.42705 72.4   746.97267
  4  0  4   733.52954 89.8   747.37690    5  2  4   717.83180 84.1   747.37742
  4  0  4   733.85261 89.9   747.69997    5  2  4   718.15468 83.3   747.70030
  4  0  4   733.86904 89.8   747.71640    6  2  4   709.14636 61.1   747.71647
  4  0  4   733.98951 88.0   747.83687    5  2  4   718.29096 84.1   747.83658
  4  0  4   734.08275 86.8   747.93011    5  2  4   718.38445 88.9   747.93007
  4  0  4   734.20729 25.4   748.05465    5  2  4   718.50872 81.6   748.05434
  4  0  4   734.73613 89.0   748.58349    5  2  4   719.03779 85.6   748.58341
  4  0  4   734.85948 88.8   748.70684    5  2  4   719.16030  7.6   748.70592
  4  0  4   734.88539 89.4   748.73275    6  2  4   710.16247 78.2   748.73258
  4  0  4   734.90042 34.5   748.74778    5  2  4   719.20192 78.4   748.74754
  4  0  4   735.03301 81.6   748.88037    6  2  4   710.31099 87.1   748.88110
  4  0  4   735.09290 84.1   748.94026    6  2  4   710.37086 83.8   748.94097
  4  0  4   735.28900 84.2   749.13636    5  2  4   719.58975 74.5   749.13537
  4  0  4   735.50393 81.5   749.35129    5  2  4   719.80485 79.3   749.35047
  4  0  4   735.51352 90.0   749.36088    6  2  4   710.78998 89.2   749.36009
  4  0  4   735.53859 46.6   749.38595    5  2  4   719.84108 73.5   749.38670
  4  0  4   735.54345 79.0   749.39081    5  2  4   719.84519 87.0   749.39081
  4  0  4   735.54850 88.4   749.39586    5  2  4   719.85044 31.1   749.39606
  4  0  4   735.55308 89.1   749.40044    5  2  4   719.85570  0.5   749.40132
  4  0  4   735.55879 44.3   749.40615    5  2  4   719.86016 15.3   749.40578
  4  0  4   735.64860 88.3   749.49596    5  2  4   719.94961  7.2   749.49523
  4  0  4   735.85542 86.0   749.70278    6  2  4   711.13198 71.4   749.70209
  4  0  4   735.88000 78.9   749.72736    5  2  4   720.18080 41.4   749.72642
  4  0  4   735.98862 69.4   749.83598    6  2  4   711.26672 87.6   749.83683
  4  0  4   736.18123 88.6   750.02859    5  2  4   720.48349 78.5   750.02911
  4  0  4   736.23837 48.6   750.08573    5  2  4   720.54086 65.2   750.08648
  4  0  4   736.35105 18.7   750.19841    5  2  4   720.65183 63.3   750.19745
  4  0  4   736.50940 87.8   750.35676    6  2  4   711.78712 71.3   750.35723
  4  0  4   736.57866 86.8   750.42602    5  2  4   720.87978 79.0   750.42540
  4  0  4   736.85437 89.0   750.70173    5  2  4   721.15706 81.7   750.70268
  4  0  4   737.57300 22.2   751.42036    5  2  4   721.87437 63.3   751.41999
  4  0  4   737.57881 89.5   751.42617    5  2  4   721.87976 86.5   751.42538
  4  0  4   737.71376 76.1   751.56112    5  2  4   722.01538 67.4   751.56100
  4  0  4   738.23629 86.7   752.08365    5  2  4   722.53863 82.0   752.08425
  4  0  4   738.35612 74.4   752.20348    5  2  4   722.65718 76.5   752.20280
  5  2  4   712.92284 83.9   742.46846    6  2  4   703.89802 49.2   742.46813
  5  2  4   713.34181 86.9   742.88743    6  2  4   704.31682 84.1   742.88693
  5  2  4   714.66942 68.3   744.21504    6  2  4   705.64445 78.9   744.21456
  5  2  4   715.10103 84.0   744.64665    6  2  4   706.07617 69.8   744.64628
  5  2  4   715.21941 55.9   744.76503    6  2  4   706.19430 63.5   744.76441
  5  2  4   715.48772 80.1   745.03334    6  2  4   706.46422 78.9   745.03433
  5  2  4   715.67628 89.8   745.22190    6  2  4   706.65161 85.6   745.22172
  5  2  4   715.96287 81.2   745.50849    6  2  4   706.93785 74.9   745.50796
  5  2  4   716.71785 78.7   746.26347    6  2  4   707.69303 88.1   746.26314
  5  2  4   716.74568 83.2   746.29130    6  2  4   707.72114 51.2   746.29125
  5  2  4   717.16450 76.0   746.71012    6  2  4   708.13933 83.7   746.70944
  5  2  4   717.36580 85.2   746.91142    6  2  4   708.34050 51.9   746.91061
  5  2  4   718.56932 81.8   748.11494    6  2  4   709.54444 77.8   748.11455
  5  2  4   718.69806 85.9   748.24368    6  2  4   709.67321 82.5   748.24332
  5  2  4   718.76884 89.6   748.31446    6  2  4   709.74469 68.4   748.31480
  5  2  4   718.83781 88.6   748.38343    6  2  4   709.81288 88.8   748.38299
  5  2  4   719.05409 65.4   748.59971    6  2  4   710.03032 68.2   748.60043
  5  2  4   719.32801 89.6   748.87363    6  2  4   710.30359 86.2   748.87370
  5  2  4   719.52630 83.1   749.07192    6  2  4   710.50200 75.6   749.07211
  5  2  4   719.88767 62.0   749.43329    6  2  4   710.86312 88.6   749.43323
  5  2  4   720.04421  1.3   749.58983    6  2  4   711.02012 72.2   749.59023
  5  2  4   720.22823 82.8   749.77385    6  2  4   711.20401 76.3   749.77412
  5  2  4   720.31130 45.5   749.85692    6  2  4   711.28674 79.5   749.85685
  5  2  4   720.66723 79.5   750.21285    6  2  4   711.64334 68.9   750.21345
  5  2  4   720.92264 76.1   750.46826    6  2  4   711.89846 56.1   750.46857
  5  2  4   721.08574 81.2   750.63136    6  2  4   712.06027 89.3   750.63038
  5  2  4   721.22927 86.6   750.77489    6  2  4   712.20413 89.9   750.77424
  5  2  4   721.37635 71.8   750.92197    6  2  4   712.35160 84.2   750.92171
  5  2  4   721.38133 86.3   750.92695    6  2  4   712.35713 81.4   750.92724
  5  2  4   722.65718 76.5   752.20280    6  2  4   713.63190 79.0   752.20201
  5  2  4   722.78029 84.7   752.32591    6  2  4   713.75530 67.8   752.32541

 Searching   6  1  5 near    756.20182
 No   1:   5  0  5       20.65134  reg   730.550 -   740.550
 No   2:   6  2  5       37.89832  reg   713.303 -   723.303
 No   3:   7  2  5       48.77161  reg   702.430 -   712.430
  5  0  5   730.57146 65.6   751.22280    6  2  5   713.32360 88.7   751.22192
  5  0  5   730.86090 88.4   751.51224    6  2  5   713.61311 85.5   751.51143
  5  0  5   731.28897 88.6   751.94031    6  2  5   714.04108 68.5   751.93940
  5  0  5   732.00604 74.4   752.65738    7  2  5   703.88550 89.2   752.65711
  5  0  5   732.37106 69.9   753.02240    6  2  5   715.12342 70.2   753.02175
  5  0  5   732.59677 73.5   753.24811    6  2  5   715.34931 85.0   753.24763
  5  0  5   732.77963 73.7   753.43097    6  2  5   715.53238 87.6   753.43070
  5  0  5   732.79546 87.0   753.44680    6  2  5   715.54805 87.1   753.44637
  5  0  5   732.89655 84.7   753.54789    6  2  5   715.65052 89.9   753.54884
  5  0  5   732.93207 75.6   753.58341    6  2  5   715.68605 73.3   753.58437
  5  0  5   733.08459 67.1   753.73593    6  2  5   715.83766 86.3   753.73598
  5  0  5   733.52954 89.8   754.18088    6  2  5   716.28302 73.4   754.18134
  5  0  5   733.55846 41.9   754.20980    6  2  5   716.31234 87.6   754.21066
  5  0  5   733.86904 89.8   754.52038    6  2  5   716.62288 83.8   754.52120
  5  0  5   733.87283 88.1   754.52417    7  2  5   705.75284 22.9   754.52445
  5  0  5   734.01782 73.1   754.66916    6  2  5   716.77168 77.9   754.67000
  5  0  5   734.25126 89.1   754.90260    6  2  5   717.00373 87.5   754.90205
  5  0  5   734.28192 41.5   754.93326    7  2  5   706.16169 74.0   754.93330
  5  0  5   734.54262 60.6   755.19396    6  2  5   717.29597 72.7   755.19429
  5  0  5   734.71647 85.1   755.36781    6  2  5   717.47001 81.1   755.36833
  5  0  5   734.81477 87.5   755.46611    6  2  5   717.56743 82.4   755.46575
  5  0  5   734.93774 64.2   755.58908    6  2  5   717.69080 89.2   755.58912
  5  0  5   735.18001 72.9   755.83135    6  2  5   717.93349 81.6   755.83181
  5  0  5   735.50393 81.5   756.15527    7  2  5   707.38341 75.1   756.15502
  5  0  5   735.53859 46.6   756.18993    6  2  5   718.29096 84.1   756.18928
  5  0  5   735.88000 78.9   756.53134    6  2  5   718.63297 89.7   756.53129
  5  0  5   736.21504 26.1   756.86638    6  2  5   718.96717 89.4   756.86549
  5  0  5   736.45483 79.8   757.10617    6  2  5   719.20744 86.5   757.10576
  5  0  5   736.81736 64.0   757.46870    6  2  5   719.57086 64.5   757.46918
                                          7  2  5   708.69809 62.9   757.46970
  5  0  5   737.15283 86.3   757.80417    7  2  5   709.03264 89.6   757.80425
  5  0  5   737.57300 22.2   758.22434    6  2  5   720.32656 85.3   758.22488
  5  0  5   737.57881 89.5   758.23015    6  2  5   720.33107 82.6   758.22939
  5  0  5   737.58329 86.6   758.23463    6  2  5   720.33651 79.9   758.23483
  5  0  5   738.28214 61.4   758.93348    7  2  5   710.16247 78.2   758.93408
  5  0  5   738.29552 45.9   758.94686    7  2  5   710.17603 82.6   758.94764
  5  0  5   738.30747 87.2   758.95881    6  2  5   721.06111 83.6   758.95943
  5  0  5   738.39965 58.8   759.05099    7  2  5   710.27931 88.7   759.05092
  5  0  5   738.41434 85.8   759.06568    6  2  5   721.16656 87.1   759.06488
  5  0  5   738.48806 63.0   759.13940    6  2  5   721.24203 82.5   759.14035
  5  0  5   738.49456 20.7   759.14590    6  2  5   721.24751 63.3   759.14583
  5  0  5   738.50072 88.8   759.15206    7  2  5   710.38058 88.6   759.15219
  5  0  5   738.51001 87.5   759.16135    6  2  5   721.26230 25.2   759.16062
  5  0  5   738.62195 60.8   759.27329    7  2  5   710.50200 75.6   759.27361
  5  0  5   738.62756 89.3   759.27890    6  2  5   721.38133 86.3   759.27965
  5  0  5   739.04128 77.9   759.69262    7  2  5   710.92117 89.7   759.69278
  5  0  5   739.17005 85.9   759.82139    6  2  5   721.92231 60.1   759.82063
  5  0  5   739.47070 89.2   760.12204    6  2  5   722.22422 80.6   760.12254
  5  0  5   739.53433 79.1   760.18567    7  2  5   711.41373 85.0   760.18534
  5  0  5   739.60146 60.5   760.25280    6  2  5   722.35481 86.7   760.25313
  5  0  5   739.67057 39.0   760.32191    6  2  5   722.42268 89.7   760.32100
  5  0  5   739.69015 87.5   760.34149    6  2  5   722.44413 85.6   760.34245
  5  0  5   739.89380 87.4   760.54514    6  2  5   722.64626 85.7   760.54458
  5  0  5   740.29323 83.0   760.94457    6  2  5   723.04657 86.9   760.94489
  5  0  5   740.36894 86.7   761.02028    6  2  5   723.12133 63.0   761.01965
  5  0  5   740.43515 21.0   761.08649    7  2  5   712.31407 89.3   761.08568
  5  0  5   740.45413 76.7   761.10547    6  2  5   723.20802 70.8   761.10634
  5  0  5   740.47900 30.2   761.13034    6  2  5   723.23252 57.9   761.13084
  5  0  5   740.54108 74.4   761.19242    6  2  5   723.29359 52.5   761.19191
  6  2  5   714.44807 76.8   752.34639    7  2  5   703.57479 49.4   752.34640
  6  2  5   714.82232 81.2   752.72064    7  2  5   703.94900 88.1   752.72061
  6  2  5   715.18135 88.3   753.07967    7  2  5   704.30769 86.1   753.07930
  6  2  5   715.21941 55.9   753.11773    7  2  5   704.34642 46.9   753.11803
  6  2  5   715.23483 83.2   753.13315    7  2  5   704.36208 54.2   753.13369
  6  2  5   715.34931 85.0   753.24763    7  2  5   704.47515 88.1   753.24676
  6  2  5   715.68605 73.3   753.58437    7  2  5   704.81315 71.0   753.58476
  6  2  5   716.03426 82.7   753.93258    7  2  5   705.16138 88.3   753.93299
  6  2  5   716.48165 76.7   754.37997    7  2  5   705.60763 75.4   754.37924
  6  2  5   716.48647 85.9   754.38479    7  2  5   705.61294 85.3   754.38455
  6  2  5   717.10425 82.2   755.00257    7  2  5   706.23029 65.1   755.00190
  6  2  5   717.20746 77.2   755.10578    7  2  5   706.33468 89.7   755.10629
  6  2  5   717.23151 83.9   755.12983    7  2  5   706.35806 71.9   755.12967
  6  2  5   717.38436 89.4   755.28268    7  2  5   706.51065 74.7   755.28226
  6  2  5   717.61117 74.4   755.50949    7  2  5   706.73697 85.8   755.50858
  6  2  5   718.22299 84.9   756.12131    7  2  5   707.34930 89.6   756.12091
  6  2  5   718.36219 84.4   756.26051    7  2  5   707.48940 62.5   756.26101
  6  2  5   718.51422 81.3   756.41254    7  2  5   707.64025 87.0   756.41186
  6  2  5   719.48719 78.6   757.38551    7  2  5   708.61393 80.5   757.38554
  6  2  5   719.57086 64.5   757.46918    7  2  5   708.69809 62.9   757.46970
  6  2  5   719.83055 84.3   757.72887    7  2  5   708.95663 81.9   757.72824
  6  2  5   719.90685  8.2   757.80517    7  2  5   709.03264 89.6   757.80425
  6  2  5   719.96423  4.7   757.86255    7  2  5   709.09063 76.0   757.86224
  6  2  5   720.01887 34.1   757.91719    7  2  5   709.14636 61.1   757.91797
  6  2  5   720.12853 53.9   758.02685    7  2  5   709.25475 73.4   758.02636
  6  2  5   720.33107 82.6   758.22939    7  2  5   709.45753 72.2   758.22914
  6  2  5   720.54086 65.2   758.43918    7  2  5   709.66802 84.1   758.43963
  6  2  5   721.33372 81.8   759.23204    7  2  5   710.46049 76.4   759.23210
  6  2  5   721.47024 64.7   759.36856    7  2  5   710.59687 74.7   759.36848
  6  2  5   722.00627 85.9   759.90459    7  2  5   711.13198 71.4   759.90359
  6  2  5   722.02210 80.6   759.92042    7  2  5   711.14917 21.0   759.92078
  6  2  5   722.02708 75.8   759.92540    7  2  5   711.15476 88.2   759.92637
  6  2  5   722.05287 86.7   759.95119    7  2  5   711.17926 46.9   759.95087
  6  2  5   722.25282 78.0   760.15114    7  2  5   711.37980 78.7   760.15141
  6  2  5   722.61114 74.9   760.50946    7  2  5   711.73818 33.5   760.50979
  6  2  5   722.90490 62.6   760.80322    7  2  5   712.03091 87.9   760.80252

 Searching   7  1  6 near    766.44100
 No   1:   6  0  6       28.72516  reg   732.716 -   742.716
 No   2:   7  2  6       47.61722  reg   713.824 -   723.824
 No   3:   8  2  6       60.50331  reg   700.938 -   710.938
  6  0  6   732.70939 79.7   761.43455    8  2  6   700.93173 36.7   761.43504
  6  0  6   732.75455 83.3   761.47971    8  2  6   700.97699 88.2   761.48030
  6  0  6   734.08275 86.8   762.80791    7  2  6   715.19126 85.0   762.80848
  6  0  6   734.17073 77.6   762.89589    7  2  6   715.27814 85.5   762.89536
  6  0  6   734.54262 60.6   763.26778    7  2  6   715.65052 89.9   763.26774
  6  0  6   734.71647 85.1   763.44163    8  2  6   702.93735 82.4   763.44066
  6  0  6   734.73613 89.0   763.46129    8  2  6   702.95772 31.3   763.46103
  6  0  6   735.09290 84.1   763.81806    7  2  6   716.20101 55.1   763.81823
  6  0  6   735.18001 72.9   763.90517    8  2  6   703.40132 88.1   763.90463
  6  0  6   735.28900 84.2   764.01416    7  2  6   716.39787 86.0   764.01509
  6  0  6   735.57908 84.9   764.30424    7  2  6   716.68788 88.7   764.30510
  6  0  6   735.99614 89.8   764.72130    7  2  6   717.10425 82.2   764.72147
  6  0  6   736.20562 26.6   764.93078    7  2  6   717.31448 76.2   764.93170
  6  0  6   736.34038 34.4   765.06554    7  2  6   717.44771 70.7   765.06493
  6  0  6   736.47509 46.6   765.20025    8  2  6   704.69676 82.5   765.20007
  6  0  6   736.50366 28.3   765.22882    7  2  6   717.61117 74.4   765.22839
  6  0  6   736.85437 89.0   765.57953    7  2  6   717.96229 88.8   765.57951
  6  0  6   737.13829 89.8   765.86345    7  2  6   718.24543 77.8   765.86265
  6  0  6   737.27713 74.1   766.00229    7  2  6   718.38445 88.9   766.00167
  6  0  6   737.57300 22.2   766.29816    7  2  6   718.68040 89.0   766.29762
  6  0  6   737.85480 63.2   766.57996    8  2  6   706.07617 69.8   766.57948
  6  0  6   738.41434 85.8   767.13950    7  2  6   719.52163 82.1   767.13885
  6  0  6   738.50072 88.8   767.22588    7  2  6   719.60842 76.6   767.22564
  6  0  6   738.62756 89.3   767.35272    8  2  6   706.84911 89.1   767.35242
  6  0  6   738.91132 90.0   767.63648    7  2  6   720.01887 34.1   767.63609
  6  0  6   739.04128 77.9   767.76644    8  2  6   707.26225 72.8   767.76556
  6  0  6   739.38086 82.3   768.10602    7  2  6   720.48833 83.6   768.10555
  6  0  6   739.39627 89.7   768.12143    7  2  6   720.50364 83.7   768.12086
  6  0  6   739.41639 72.4   768.14155    7  2  6   720.52465 77.4   768.14187
  6  0  6   739.47070 89.2   768.19586    8  2  6   707.69303 88.1   768.19634
  6  0  6   739.49278 74.1   768.21794    7  2  6   720.60001 67.1   768.21723
  6  0  6   739.50373 85.0   768.22889    7  2  6   720.61102 57.7   768.22824
  6  0  6   739.59632 52.8   768.32148    7  2  6   720.70516 87.9   768.32238
  6  0  6   739.61566 86.6   768.34082    7  2  6   720.72404  1.3   768.34126
  6  0  6   739.67567 76.0   768.40083    7  2  6   720.78314 80.7   768.40036
  6  0  6   739.77687 73.0   768.50203    7  2  6   720.88495 73.0   768.50217
  6  0  6   739.82017 84.3   768.54533    7  2  6   720.92832 89.7   768.54554
  6  0  6   739.83283 81.8   768.55799    8  2  6   708.05556 48.6   768.55887
  6  0  6   739.85960 46.0   768.58476    7  2  6   720.96717 86.4   768.58439
  6  0  6   739.95337 79.3   768.67853    7  2  6   721.06111 83.6   768.67833
  6  0  6   740.10746 70.0   768.83262    7  2  6   721.21498 85.1   768.83220
  6  0  6   740.31034 35.6   769.03550    7  2  6   721.41847 52.8   769.03569
  6  0  6   740.45413 76.7   769.17929    7  2  6   721.56202 87.8   769.17924
  6  0  6   740.51371 39.5   769.23887    7  2  6   721.62233 50.7   769.23955
  6  0  6   740.81348 88.5   769.53864    7  2  6   721.92231 60.1   769.53953
  6  0  6   740.86954 68.5   769.59470    7  2  6   721.97662 79.4   769.59384
                                          8  2  6   709.09063 76.0   769.59394
  6  0  6   741.35700 81.4   770.08216    7  2  6   722.46494 87.1   770.08216
  6  0  6   741.41702 67.0   770.14218    8  2  6   709.63820 80.0   770.14151
  6  0  6   741.54393 88.2   770.26909    7  2  6   722.65131 90.0   770.26853
  6  0  6   742.12593 86.1   770.85109    8  2  6   710.34781 78.5   770.85112
  6  0  6   742.17996 87.6   770.90512    7  2  6   723.28817 76.5   770.90539
  6  0  6   742.28230 88.6   771.00746    7  2  6   723.38984 86.9   771.00706
  6  0  6   742.35238 65.9   771.07754    7  2  6   723.46076 71.0   771.07798
  6  0  6   742.37592 78.3   771.10108    8  2  6   710.59687 74.7   771.10018
  6  0  6   742.44732 72.0   771.17248    8  2  6   710.66976 88.5   771.17307
  6  0  6   742.47458 34.4   771.19974    7  2  6   723.58201 45.8   771.19923
  7  2  6   714.96840 79.9   762.58562    8  2  6   702.08202 86.6   762.58533
  7  2  6   715.09418 80.1   762.71140    8  2  6   702.20901 63.0   762.71232
  7  2  6   715.18135 88.3   762.79857    8  2  6   702.29581 77.2   762.79912
  7  2  6   715.53238 87.6   763.14960    8  2  6   702.64648 86.1   763.14979
  7  2  6   715.59478 77.5   763.21200    8  2  6   702.70821 78.3   763.21152
  7  2  6   715.72929 60.1   763.34651    8  2  6   702.84224 85.2   763.34555
  7  2  6   715.83766 86.3   763.45488    8  2  6   702.95216 88.6   763.45547
  7  2  6   715.87521 78.2   763.49243    8  2  6   702.99004 51.5   763.49335
  7  2  6   716.09414 85.2   763.71136    8  2  6   703.20727 76.5   763.71058
  7  2  6   716.77168 77.9   764.38890    8  2  6   703.88550 89.2   764.38881
  7  2  6   717.10425 82.2   764.72147    8  2  6   704.21905 14.7   764.72236
  7  2  6   717.16450 76.0   764.78172    8  2  6   704.27909 46.1   764.78240
  7  2  6   717.21223 85.9   764.82945    8  2  6   704.32702 89.1   764.83033
  7  2  6   717.38436 89.4   765.00158    8  2  6   704.49812 52.2   765.00143
  7  2  6   717.58187 76.9   765.19909    8  2  6   704.69676 82.5   765.20007
  7  2  6   718.52987 80.3   766.14709    8  2  6   705.64445 78.9   766.14776
  7  2  6   718.66483 83.1   766.28205    8  2  6   705.77805 78.4   766.28136
  7  2  6   719.53798 74.9   767.15520    8  2  6   706.65161 85.6   767.15492
  7  2  6   719.56206 80.6   767.17928    8  2  6   706.67522 72.7   767.17853
  7  2  6   719.82307 40.6   767.44029    8  2  6   706.93785 74.9   767.44116
  7  2  6   719.95930  2.4   767.57652    8  2  6   707.07383 23.3   767.57714
  7  2  6   720.01317  5.2   767.63039    8  2  6   707.12723 32.6   767.63054
  7  2  6   720.87978 79.0   768.49700    8  2  6   707.99325 80.6   768.49656
  7  2  6   721.16656 87.1   768.78378    8  2  6   708.27998 84.6   768.78329
  7  2  6   721.97662 79.4   769.59384    8  2  6   709.09063 76.0   769.59394
  7  2  6   722.24226 78.4   769.85948    8  2  6   709.35669 85.4   769.86000
  7  2  6   722.63114 53.7   770.24836    8  2  6   709.74469 68.4   770.24800
  7  2  6   722.70382 74.6   770.32104    8  2  6   709.81753 84.4   770.32084
  7  2  6   723.06166 86.8   770.67888    8  2  6   710.17603 82.6   770.67934
  7  2  6   723.25634 88.8   770.87356    8  2  6   710.37086 83.8   770.87417
  7  2  6   723.27128 87.4   770.88850    8  2  6   710.38560 89.2   770.88891
  7  2  6   723.28255 60.6   770.89977    8  2  6   710.39567 49.0   770.89898
  7  2  6   723.67667 84.3   771.29389    8  2  6   710.78998 89.2   771.29329
  7  2  6   723.79665 61.9   771.41387    8  2  6   710.91035 89.6   771.41366

 Searching   8  1  7 near    778.07079
 No   1:   7  0  7       38.03955  reg   735.031 -   745.031
 No   2:   8  2  7       58.69081  reg   714.380 -   724.380
 No   3:   9  2  7       73.75868  reg   699.312 -   709.312
  7  0  7   735.37988 89.0   773.41943    9  2  7   699.66156 24.7   773.42024
  7  0  7   735.84299 90.0   773.88254    8  2  7   715.19126 85.0   773.88207
  7  0  7   735.85542 86.0   773.89497    8  2  7   715.20363 84.5   773.89444
  7  0  7   736.05538 81.0   774.09493    8  2  7   715.40353 67.3   774.09434
  7  0  7   736.11486 88.8   774.15441    9  2  7   700.39591 56.9   774.15459
  7  0  7   736.19994 89.1   774.23949    8  2  7   715.54805 87.1   774.23886
  7  0  7   736.26868 57.5   774.30823    8  2  7   715.61828 81.9   774.30909
  7  0  7   736.50366 28.3   774.54321    9  2  7   700.78442 88.8   774.54310
  7  0  7   736.65016 87.9   774.68971    9  2  7   700.93173 36.7   774.69041
  7  0  7   736.81736 64.0   774.85691    9  2  7   701.09875 90.0   774.85743
  7  0  7   736.86352 77.8   774.90307    8  2  7   716.21192 86.8   774.90273
  7  0  7   736.96852 64.0   775.00807    8  2  7   716.31820 86.4   775.00901
  7  0  7   737.13829 89.8   775.17784    8  2  7   716.48647 85.9   775.17728
  7  0  7   738.31931 87.2   776.35886    9  2  7   702.60015 71.3   776.35883
  7  0  7   738.39965 58.8   776.43920    8  2  7   717.74804 78.0   776.43885
  7  0  7   738.89728 62.1   776.93683    8  2  7   718.24543 77.8   776.93624
  7  0  7   739.29747 88.5   777.33702    8  2  7   718.64685 81.2   777.33766
  7  0  7   739.75691 89.0   777.79646    8  2  7   719.10584 86.9   777.79665
  7  0  7   739.77687 73.0   777.81642    8  2  7   719.12625 86.8   777.81706
  7  0  7   739.84446 79.0   777.88401    8  2  7   719.19360 89.2   777.88441
  7  0  7   739.85063 78.6   777.89018    9  2  7   704.13102 82.7   777.88970
  7  0  7   739.85960 46.0   777.89915    8  2  7   719.20744 86.5   777.89825
  7  0  7   739.89380 87.4   777.93335    8  2  7   719.24214 89.0   777.93295
  7  0  7   740.02106 79.3   778.06061    9  2  7   704.30210 37.2   778.06078
  7  0  7   740.36894 86.7   778.40849    8  2  7   719.71820 86.6   778.40901
  7  0  7   740.44080 88.9   778.48035    8  2  7   719.78956 89.2   778.48037
  7  0  7   740.49556 83.3   778.53511    8  2  7   719.84519 87.0   778.53600
  7  0  7   740.65066 89.2   778.69021    8  2  7   719.99891 66.8   778.68972
  7  0  7   740.81348 88.5   778.85303    9  2  7   705.09460 69.3   778.85328
  7  0  7   741.35700 81.4   779.39655    8  2  7   720.70516 87.9   779.39597
  7  0  7   741.41135 87.2   779.45090    8  2  7   720.76094 87.9   779.45175
  7  0  7   741.61843 70.6   779.65798    8  2  7   720.96717 86.4   779.65798
  7  0  7   742.05412 81.0   780.09367    8  2  7   721.40323 62.1   780.09404
                                          9  2  7   706.33468 89.7   780.09336
  7  0  7   742.17996 87.6   780.21951    8  2  7   721.52798 47.8   780.21879
  7  0  7   742.63814 87.8   780.67769    8  2  7   721.98760  9.7   780.67841
  7  0  7   743.06748 85.4   781.10703    9  2  7   707.34930 89.6   781.10798
  7  0  7   743.20999 89.9   781.24954    8  2  7   722.55789 86.7   781.24870
  7  0  7   743.89492 45.3   781.93447    8  2  7   723.24433 84.0   781.93514
  7  0  7   744.05212 89.3   782.09167    8  2  7   723.40010 83.1   782.09091
  7  0  7   744.24116 88.1   782.28071    8  2  7   723.59051 70.0   782.28132
  7  0  7   744.54924 76.0   782.58879    8  2  7   723.89768 79.6   782.58849
  7  0  7   744.56624 71.1   782.60579    8  2  7   723.91420 49.2   782.60501
  7  0  7   744.59015 84.9   782.62970    8  2  7   723.93909 74.7   782.62990
  7  0  7   744.61217 76.6   782.65172    8  2  7   723.96169 88.5   782.65250
  8  2  7   714.61490 85.0   773.30571    9  2  7   699.54767 87.6   773.30635
  8  2  7   715.14407 87.4   773.83488    9  2  7   700.07607 75.3   773.83475
  8  2  7   715.16907 87.2   773.85988    9  2  7   700.10139 80.0   773.86007
  8  2  7   715.48772 80.1   774.17853    9  2  7   700.41916 86.0   774.17784
  8  2  7   716.03856 83.2   774.72937    9  2  7   700.97101 59.2   774.72969
  8  2  7   716.12523 84.8   774.81604    9  2  7   701.05681 50.0   774.81549
  8  2  7   716.23091 84.9   774.92172    9  2  7   701.16303 57.7   774.92171
  8  2  7   716.54817 84.6   775.23898    9  2  7   701.47946 56.9   775.23814
  8  2  7   716.77168 77.9   775.46249    9  2  7   701.70334 40.4   775.46202
  8  2  7   717.13442 87.8   775.82524    9  2  7   702.06682 77.0   775.82550
  8  2  7   717.15072 85.4   775.84153    9  2  7   702.08202 86.6   775.84070
  8  2  7   717.16450 76.0   775.85531    9  2  7   702.09663 86.5   775.85531
  8  2  7   717.40379 89.1   776.09460    9  2  7   702.33539 89.9   776.09407
  8  2  7   717.40867 80.8   776.09948    9  2  7   702.34095 56.5   776.09963
  8  2  7   717.42705 72.4   776.11786    9  2  7   702.35963 75.5   776.11831
  8  2  7   718.00468 15.8   776.69549    9  2  7   702.93735 82.4   776.69603
  8  2  7   718.09636 90.0   776.78717    9  2  7   703.02779 76.1   776.78647
  8  2  7   718.19147 78.8   776.88228    9  2  7   703.12405 65.0   776.88273
  8  2  7   719.26111 87.1   777.95192    9  2  7   704.19377 46.3   777.95245
  8  2  7   719.28708 80.9   777.97789    9  2  7   704.21905 14.7   777.97773
  8  2  7   719.38443 88.8   778.07524    9  2  7   704.31682 84.1   778.07550
  8  2  7   720.61102 57.7   779.30183    9  2  7   705.54266 86.6   779.30134
  8  2  7   720.71327 86.0   779.40408    9  2  7   705.64445 78.9   779.40313
  8  2  7   720.84538 89.7   779.53619    9  2  7   705.77805 78.4   779.53673
  8  2  7   721.22927 86.6   779.92008    9  2  7   706.16169 74.0   779.92037
  8  2  7   721.26230 25.2   779.95311    9  2  7   706.19430 63.5   779.95298
  8  2  7   721.40323 62.1   780.09404    9  2  7   706.33468 89.7   780.09336
  8  2  7   721.49621 90.0   780.18702    9  2  7   706.42736 79.5   780.18604
  8  2  7   721.55532 61.6   780.24613    9  2  7   706.48749 84.4   780.24617
  8  2  7   721.67822 82.2   780.36903    9  2  7   706.60980 71.6   780.36848
  8  2  7   721.81659 58.3   780.50740    9  2  7   706.74829 88.7   780.50697
  8  2  7   721.99319 88.2   780.68400    9  2  7   706.92566 82.0   780.68434
  8  2  7   722.00627 85.9   780.69708    9  2  7   706.93785 74.9   780.69653
  8  2  7   722.10830 85.2   780.79911    9  2  7   707.04024 52.6   780.79892
  8  2  7   722.55789 86.7   781.24870    9  2  7   707.48940 62.5   781.24808
  8  2  7   722.65131 90.0   781.34212    9  2  7   707.58440 33.7   781.34308
  8  2  7   722.94647 80.6   781.63728    9  2  7   707.87793 44.2   781.63661
  8  2  7   723.01092 53.0   781.70173    9  2  7   707.94292 67.5   781.70160
  8  2  7   723.01640 79.5   781.70721    9  2  7   707.94826 87.7   781.70694
  8  2  7   723.06166 86.8   781.75247    9  2  7   707.99325 80.6   781.75193
  8  2  7   723.20802 70.8   781.89883    9  2  7   708.13933 83.7   781.89801
  8  2  7   723.32595 84.4   782.01676    9  2  7   708.25720 87.1   782.01588
  8  2  7   724.02548 84.9   782.71629    9  2  7   708.95663 81.9   782.71531
  8  2  7   724.11037 88.8   782.80118    9  2  7   709.04213 70.2   782.80081

 Searching   9  1  8 near    791.05699
 No   1:   8  0  8       48.57528  reg   737.482 -   747.482
 No   2:   9  2  8       71.10643  reg   714.951 -   724.951
 No   3:  10  2  8       88.52087  reg   697.536 -   707.536
  8  0  8   737.76506 60.8   786.34034    9  2  8   715.23483 83.2   786.34126
  8  0  8   738.48806 63.0   787.06334    9  2  8   715.95651 85.2   787.06294
  8  0  8   738.49456 20.7   787.06984    9  2  8   715.96287 81.2   787.06930
  8  0  8   738.91132 90.0   787.48660    9  2  8   716.37928 88.5   787.48571
  8  0  8   739.21147 77.7   787.78675    9  2  8   716.68010 80.3   787.78653
  8  0  8   739.30200 86.9   787.87728    9  2  8   716.77168 77.9   787.87811
                                         10  2  8   699.35583 86.7   787.87670
  8  0  8   739.38086 82.3   787.95614    9  2  8   716.84991 89.0   787.95634
  8  0  8   739.41639 72.4   787.99167   10  2  8   699.47066 88.1   787.99153
  8  0  8   739.47070 89.2   788.04598    9  2  8   716.94027 79.1   788.04670
  8  0  8   739.49278 74.1   788.06806   10  2  8   699.54767 87.6   788.06854
  8  0  8   739.53433 79.1   788.10961    9  2  8   717.00373 87.5   788.11016
  8  0  8   739.55558 63.1   788.13086   10  2  8   699.60930 89.7   788.13017
  8  0  8   739.60146 60.5   788.17674   10  2  8   699.65566 89.7   788.17653
  8  0  8   739.77687 73.0   788.35215   10  2  8   699.83205 86.3   788.35292
  8  0  8   739.79560 34.8   788.37088    9  2  8   717.26350 80.7   788.36993
  8  0  8   740.02106 79.3   788.59634   10  2  8   700.07607 75.3   788.59694
  8  0  8   740.42484 83.0   789.00012    9  2  8   717.89331 84.6   788.99974
  8  0  8   740.47310 85.7   789.04838   10  2  8   700.52833 86.8   789.04920
  8  0  8   740.86954 68.5   789.44482   10  2  8   700.92403 68.3   789.44490
  8  0  8   741.63626 85.5   790.21154    9  2  8   719.10584 86.9   790.21227
  8  0  8   741.65434 88.5   790.22962   10  2  8   701.70924 89.2   790.23011
  8  0  8   741.73811 85.5   790.31339    9  2  8   719.20744 86.5   790.31387
  8  0  8   742.20933 64.5   790.78461    9  2  8   719.67865 89.8   790.78508
  8  0  8   742.37592 78.3   790.95120    9  2  8   719.84519 87.0   790.95162
  8  0  8   742.52920 83.5   791.10448    9  2  8   719.99891 66.8   791.10534
  8  0  8   743.01551 85.5   791.59079    9  2  8   720.48349 78.5   791.58992
  8  0  8   743.05571 90.0   791.63099    9  2  8   720.52465 77.4   791.63108
  8  0  8   743.06167 20.9   791.63695    9  2  8   720.52997  1.4   791.63640
  8  0  8   743.43838 86.2   792.01366    9  2  8   720.90651 59.6   792.01294
  8  0  8   743.45298 88.1   792.02826    9  2  8   720.92264 76.1   792.02907
  8  0  8   743.77796 27.2   792.35324    9  2  8   721.24751 63.3   792.35394
                                         10  2  8   703.83301 66.7   792.35388
  8  0  8   743.78406 78.3   792.35934    9  2  8   721.25233 86.4   792.35876
  8  0  8   743.89492 45.3   792.47020   10  2  8   703.94900 88.1   792.46987
  8  0  8   743.93501 67.7   792.51029    9  2  8   721.40323 62.1   792.50966
  8  0  8   744.35380 85.4   792.92908   10  2  8   704.40832 35.5   792.92919
  8  0  8   744.44397 89.7   793.01925   10  2  8   704.49812 52.2   793.01899
  8  0  8   744.45322 78.1   793.02850    9  2  8   721.92231 60.1   793.02874
  8  0  8   744.48130 86.8   793.05658    9  2  8   721.95005 72.1   793.05648
  8  0  8   744.52589 39.9   793.10117   10  2  8   704.58023 86.5   793.10110
  8  0  8   744.53739 70.4   793.11267    9  2  8   722.00627 85.9   793.11270
  8  0  8   744.72756 88.8   793.30284    9  2  8   722.19725 72.4   793.30368
  8  0  8   745.57756 88.6   794.15284    9  2  8   723.04657 86.9   794.15300
  8  0  8   745.77588 84.9   794.35116    9  2  8   723.24433 84.0   794.35076
  8  0  8   745.84043 71.8   794.41571    9  2  8   723.31015 86.9   794.41658
  8  0  8   746.11343 78.1   794.68871    9  2  8   723.58201 45.8   794.68844
  8  0  8   746.30270 81.5   794.87798   10  2  8   706.35806 71.9   794.87893
  8  0  8   746.87194 51.0   795.44722   10  2  8   706.92566 82.0   795.44653
  8  0  8   747.08084 90.0   795.65612    9  2  8   724.55063 80.8   795.65706
  8  0  8   747.11201 46.3   795.68729    9  2  8   724.58026 86.0   795.68669
  8  0  8   747.15053 58.5   795.72581    9  2  8   724.61861 31.2   795.72504
  8  0  8   747.23576 56.5   795.81104    9  2  8   724.70423 23.0   795.81066
  8  0  8   747.25020 79.9   795.82548    9  2  8   724.71836 47.5   795.82479
  8  0  8   747.28649 87.7   795.86177    9  2  8   724.75559 39.7   795.86202
  8  0  8   747.36438 27.7   795.93966    9  2  8   724.83374 25.9   795.94017
  8  0  8   747.39022 83.4   795.96550    9  2  8   724.85823 71.3   795.96466
  9  2  8   714.99975 84.4   786.10618   10  2  8   697.58473 17.4   786.10560
  9  2  8   715.08042 83.0   786.18685   10  2  8   697.66672 86.6   786.18759
  9  2  8   715.75283 84.1   786.85926   10  2  8   698.33775 15.8   786.85862
  9  2  8   715.78408 89.2   786.89051   10  2  8   698.37009 66.7   786.89096
  9  2  8   715.83766 86.3   786.94409   10  2  8   698.42316 88.6   786.94403
  9  2  8   715.84570 84.9   786.95213   10  2  8   698.43040 68.3   786.95127
  9  2  8   716.26727 75.4   787.37370   10  2  8   698.85231 69.7   787.37318
  9  2  8   716.99934 71.4   788.10577   10  2  8   699.58548 82.1   788.10635
  9  2  8   717.38436 89.4   788.49079   10  2  8   699.96983 88.9   788.49070
  9  2  8   717.88296 88.0   788.98939   10  2  8   700.46763 75.7   788.98850
  9  2  8   718.21741 40.3   789.32384   10  2  8   700.80384 76.8   789.32471
  9  2  8   718.38445 88.9   789.49088   10  2  8   700.97101 59.2   789.49188
  9  2  8   718.83781 88.6   789.94424   10  2  8   701.42379 86.7   789.94466
  9  2  8   718.96717 89.4   790.07360   10  2  8   701.55315 63.5   790.07402
  9  2  8   719.26111 87.1   790.36754   10  2  8   701.84751 78.0   790.36838
  9  2  8   719.34831 83.9   790.45474   10  2  8   701.93478 86.8   790.45565
  9  2  8   719.99891 66.8   791.10534   10  2  8   702.58499 86.8   791.10586
  9  2  8   720.06080  6.0   791.16723   10  2  8   702.64648 86.1   791.16735
  9  2  8   720.12317  0.8   791.22960   10  2  8   702.70821 78.3   791.22908
  9  2  8   720.16765  1.5   791.27408   10  2  8   702.75248 76.9   791.27335
  9  2  8   720.36146 68.0   791.46789   10  2  8   702.94747 87.9   791.46834
  9  2  8   720.39896 77.1   791.50539   10  2  8   702.98371 84.5   791.50458
  9  2  8   720.62212 73.4   791.72855   10  2  8   703.20727 76.5   791.72814
  9  2  8   721.24751 63.3   792.35394   10  2  8   703.83301 66.7   792.35388
  9  2  8   721.54617 70.4   792.65260   10  2  8   704.13102 82.7   792.65189
  9  2  8   722.95611 89.8   794.06254   10  2  8   705.54266 86.6   794.06353
  9  2  8   723.01092 53.0   794.11735   10  2  8   705.59564 80.6   794.11651
  9  2  8   723.02125 84.1   794.12768   10  2  8   705.60763 75.4   794.12850
  9  2  8   723.02671 32.8   794.13314   10  2  8   705.61294 85.3   794.13381
  9  2  8   723.29359 52.5   794.40002   10  2  8   705.88003 73.8   794.40090
  9  2  8   723.41517 81.0   794.52160   10  2  8   706.00002 86.7   794.52089
  9  2  8   723.60852 84.5   794.71495   10  2  8   706.19430 63.5   794.71517
  9  2  8   724.44435 81.2   795.55078   10  2  8   707.03005 45.0   795.55092
  9  2  8   724.53098 24.7   795.63741   10  2  8   707.11631 77.7   795.63718
  9  2  8   724.73490 35.6   795.84133   10  2  8   707.32131 87.2   795.84218

 Searching  10  1  9 near    805.36094
 No   1:   9  0  9       60.32316  reg   740.038 -   750.038
 No   2:  10  2  9       84.85064  reg   715.510 -   725.510
 No   3:  11  2  9      104.76548  reg   695.595 -   705.595
  9  0  9   740.10746 70.0   800.43062   10  2  9   715.57921 81.2   800.42985
  9  0  9   740.44080 88.9   800.76396   10  2  9   715.91258 86.1   800.76322
  9  0  9   740.72765 87.9   801.05081   10  2  9   716.20101 55.1   801.05165
  9  0  9   740.90259 85.0   801.22575   10  2  9   716.37528 84.2   801.22592
  9  0  9   741.07490 71.3   801.39806   10  2  9   716.54817 84.6   801.39881
  9  0  9   741.24070 88.0   801.56386   10  2  9   716.71289 82.8   801.56353
  9  0  9   741.87793 82.3   802.20109   10  2  9   717.35093 89.6   802.20157
  9  0  9   742.05412 81.0   802.37728   10  2  9   717.52699 83.0   802.37763
  9  0  9   742.37592 78.3   802.69908   11  2  9   697.93346 75.3   802.69894
  9  0  9   742.94839 76.7   803.27155   11  2  9   698.50615 65.4   803.27163
  9  0  9   743.06748 85.4   803.39064   11  2  9   698.62613 82.0   803.39161
  9  0  9   743.11414 29.9   803.43730   11  2  9   698.67246 89.1   803.43794
  9  0  9   744.05212 89.3   804.37528   11  2  9   699.60930 89.7   804.37478
  9  0  9   744.28836 74.4   804.61152   10  2  9   719.76174 88.6   804.61238
  9  0  9   744.43293 85.2   804.75609   11  2  9   699.99061 89.8   804.75609
  9  0  9   744.52589 39.9   804.84905   10  2  9   719.99891 66.8   804.84955
  9  0  9   744.61217 76.6   804.93533   10  2  9   720.08537  2.0   804.93601
  9  0  9   744.65094 73.9   804.97410   10  2  9   720.12317  0.8   804.97381
  9  0  9   744.70863 75.8   805.03179   10  2  9   720.18080 41.4   805.03144
  9  0  9   744.79108 87.4   805.11424   10  2  9   720.26269 50.3   805.11333
  9  0  9   745.35834 87.2   805.68150   11  2  9   700.91561 85.7   805.68109
  9  0  9   745.70961 75.9   806.03277   10  2  9   721.18229 87.9   806.03293
  9  0  9   745.77588 84.9   806.09904   10  2  9   721.24751 63.3   806.09815
  9  0  9   745.80898 44.5   806.13214   10  2  9   721.28222 73.8   806.13286
  9  0  9   745.89217 80.6   806.21533   11  2  9   701.45081 88.7   806.21629
  9  0  9   745.99489 88.7   806.31805   11  2  9   701.55315 63.5   806.31863
  9  0  9   746.36476 85.5   806.68792   10  2  9   721.83706 86.5   806.68770
  9  0  9   746.52451 88.3   806.84767   11  2  9   702.08202 86.6   806.84750
  9  0  9   746.54271 75.0   806.86587   10  2  9   722.01538 67.4   806.86602
  9  0  9   746.56138 70.5   806.88454   10  2  9   722.03384 47.6   806.88448
  9  0  9   746.66561 89.2   806.98877   11  2  9   702.22324 77.2   806.98872
  9  0  9   746.78348 88.5   807.10664   11  2  9   702.34095 56.5   807.10643
  9  0  9   746.97748 89.6   807.30064   10  2  9   722.44944 66.5   807.30008
  9  0  9   747.02733 74.6   807.35049   11  2  9   702.58499 86.8   807.35047
  9  0  9   747.09085 80.3   807.41401   10  2  9   722.56307 80.8   807.41371
  9  0  9   747.15053 58.5   807.47369   11  2  9   702.70821 78.3   807.47369
  9  0  9   747.20368 67.6   807.52684   10  2  9   722.67605 86.0   807.52669
  9  0  9   747.39022 83.4   807.71338   11  2  9   702.94747 87.9   807.71295
  9  0  9   747.81610 86.6   808.13926   10  2  9   723.28817 76.5   808.13881
  9  0  9   748.17288 88.0   808.49604   11  2  9   703.73122 60.4   808.49670
  9  0  9   748.32852 79.6   808.65168   11  2  9   703.88550 89.2   808.65098
  9  0  9   748.51526 78.6   808.83842   11  2  9   704.07293 85.1   808.83841
  9  0  9   748.64134 86.9   808.96450   11  2  9   704.19940 85.3   808.96488
  9  0  9   748.67504 79.1   808.99820   10  2  9   724.14824 83.8   808.99888
  9  0  9   748.68037 89.4   809.00353   10  2  9   724.15294 85.1   809.00358
  9  0  9   748.77195 89.8   809.09511   10  2  9   724.24364 38.7   809.09428
  9  0  9   749.08803 89.1   809.41119   10  2  9   724.56107 29.3   809.41171
  9  0  9   749.09830 40.5   809.42146   10  2  9   724.57089 81.9   809.42153
  9  0  9   749.15062 89.1   809.47378   10  2  9   724.62280 41.3   809.47344
  9  0  9   749.16496 88.9   809.48812   10  2  9   724.63808 79.7   809.48872
  9  0  9   749.24558 19.9   809.56874   10  2  9   724.71836 47.5   809.56900
  9  0  9   749.31247 71.0   809.63563   11  2  9   704.87046 72.9   809.63594
  9  0  9   749.51428 88.6   809.83744   11  2  9   705.07117 86.7   809.83665
  9  0  9   749.53714 75.6   809.86030   11  2  9   705.09460 69.3   809.86008
  9  0  9   749.63633 50.6   809.95949   10  2  9   725.10943 85.8   809.96007
  9  0  9   749.96179 78.7   810.28495   10  2  9   725.43451 40.3   810.28515
  9  0  9   749.99859 87.3   810.32175   10  2  9   725.47117 31.1   810.32181
 10  2  9   715.61828 81.9   800.46892   11  2  9   695.70400 61.0   800.46948
 10  2  9   715.88461 86.9   800.73525   11  2  9   695.97003 86.7   800.73551
 10  2  9   715.92426 81.6   800.77490   11  2  9   696.00971 75.2   800.77519
 10  2  9   715.99467 74.8   800.84531   11  2  9   696.08057 82.1   800.84605
 10  2  9   716.11017 86.7   800.96081   11  2  9   696.19615 87.6   800.96163
 10  2  9   716.23959 81.2   801.09023   11  2  9   696.32542 74.4   801.09090
 10  2  9   716.57047 79.9   801.42111   11  2  9   696.65557 90.0   801.42105
 10  2  9   716.68010 80.3   801.53074   11  2  9   696.76599 85.5   801.53147
 10  2  9   717.14071 80.2   801.99135   11  2  9   697.22576 88.9   801.99124
 10  2  9   717.49961 74.1   802.35025   11  2  9   697.58473 17.4   802.35021
 10  2  9   717.58187 76.9   802.43251   11  2  9   697.66672 86.6   802.43220
 10  2  9   718.00468 15.8   802.85532   11  2  9   698.08904 82.1   802.85452
 10  2  9   718.69806 85.9   803.54870   11  2  9   698.78357 78.7   803.54905
 10  2  9   719.14958 87.3   804.00022   11  2  9   699.23474 88.5   804.00022
 10  2  9   719.57086 64.5   804.42150   11  2  9   699.65566 89.7   804.42114
 10  2  9   719.62644 77.4   804.47708   11  2  9   699.71217 79.8   804.47765
 10  2  9   720.02387  1.4   804.87451   11  2  9   700.10953 89.4   804.87501
 10  2  9   720.31130 45.5   805.16194   11  2  9   700.39591 56.9   805.16139
 10  2  9   720.52465 77.4   805.37529   11  2  9   700.60962 86.1   805.37510
 10  2  9   720.65674  1.3   805.50738   11  2  9   700.74208 90.0   805.50756
 10  2  9   720.71870 17.4   805.56934   11  2  9   700.80384 76.8   805.56932
 10  2  9   720.79363  3.2   805.64427   11  2  9   700.87949 70.1   805.64497
 10  2  9   720.88495 73.0   805.73559   11  2  9   700.97101 59.2   805.73649
 10  2  9   721.36602 87.4   806.21666   11  2  9   701.45081 88.7   806.21629
 10  2  9   721.43756 26.1   806.28820   11  2  9   701.52348 44.6   806.28896
 10  2  9   721.61123 82.9   806.46187   11  2  9   701.69702 77.2   806.46250
 10  2  9   721.85001 85.5   806.70065   11  2  9   701.93478 86.8   806.70026
 10  2  9   721.98189 86.4   806.83253   11  2  9   702.06682 77.0   806.83230
 10  2  9   722.81969 87.6   807.67033   11  2  9   702.90480 77.1   807.67028
 10  2  9   722.90490 62.6   807.75554   11  2  9   702.99004 51.5   807.75552
 10  2  9   723.12133 63.0   807.97197   11  2  9   703.20727 76.5   807.97275
 10  2  9   723.31520 82.4   808.16584   11  2  9   703.40132 88.1   808.16680
 10  2  9   723.54096 82.5   808.39160   11  2  9   703.62533 66.4   808.39081
 10  2  9   723.98002 89.4   808.83066   11  2  9   704.06615 83.9   808.83163
 10  2  9   724.12858 16.3   808.97922   11  2  9   704.21341 89.3   808.97889
 10  2  9   724.26050 88.2   809.11114   11  2  9   704.34642 46.9   809.11190
 10  2  9   724.48392 87.5   809.33456   11  2  9   704.57002 38.9   809.33550
 10  2  9   724.48941 12.6   809.34005   11  2  9   704.57537 69.5   809.34085
 10  2  9   724.49503 83.5   809.34567   11  2  9   704.58023 86.5   809.34571
 10  2  9   725.05316 74.6   809.90380   11  2  9   705.13794 85.9   809.90342

 Searching  11  1 10 near    820.94289
 No   1:  10  0 10       73.28123  reg   742.662 -   752.662
 No   2:  11  2 10       99.90958  reg   716.033 -   726.033
 No   3:  12  2 10      122.46239  reg   693.481 -   703.481
 10  0 10   743.11414 29.9   816.39537   11  2 10   716.48647 85.9   816.39605
 10  0 10   743.16220 89.1   816.44343   11  2 10   716.53299 88.4   816.44257
 10  0 10   743.28408 88.8   816.56531   11  2 10   716.65531 78.8   816.56489
 10  0 10   743.43838 86.2   816.71961   12  2 10   694.25815 87.1   816.72054
 10  0 10   743.83606 86.4   817.11729   11  2 10   717.20746 77.2   817.11704
 10  0 10   744.35380 85.4   817.63503   12  2 10   695.17364 89.1   817.63603
 10  0 10   744.59015 84.9   817.87138   11  2 10   717.96229 88.8   817.87187
 10  0 10   744.59627 62.0   817.87750   11  2 10   717.96820 79.5   817.87778
 10  0 10   744.63477 82.7   817.91600   12  2 10   695.45397 87.7   817.91636
 10  0 10   744.79108 87.4   818.07231   11  2 10   718.16313 84.3   818.07271
 10  0 10   744.82958 89.1   818.11081   11  2 10   718.20209 71.3   818.11167
 10  0 10   745.05059 69.4   818.33182   11  2 10   718.42203 80.7   818.33161
 10  0 10   745.73478 88.8   819.01601   11  2 10   719.10584 86.9   819.01542
 10  0 10   745.80898 44.5   819.09021   11  2 10   719.17997 89.4   819.08955
 10  0 10   746.00900 82.0   819.29023   12  2 10   696.82767 86.2   819.29006
 10  0 10   746.04119 78.0   819.32242   12  2 10   696.86029 49.8   819.32268
 10  0 10   746.67200 84.1   819.95323   11  2 10   720.04421  1.3   819.95379
 10  0 10   747.02733 74.6   820.30856   11  2 10   720.39896 77.1   820.30854
 10  0 10   747.11201 46.3   820.39324   11  2 10   720.48349 78.5   820.39307
 10  0 10   747.20368 67.6   820.48491   11  2 10   720.57623 84.7   820.48581
 10  0 10   747.25020 79.9   820.53143   11  2 10   720.62212 73.4   820.53170
 10  0 10   747.39022 83.4   820.67145   11  2 10   720.76094 87.9   820.67052
                                         12  2 10   698.20828 89.9   820.67067
 10  0 10   747.51974 86.0   820.80097   12  2 10   698.33775 15.8   820.80014
 10  0 10   747.81610 86.6   821.09733   11  2 10   721.18688 89.6   821.09646
 10  0 10   748.32852 79.6   821.60975   12  2 10   699.14638 76.8   821.60877
 10  0 10   748.55130 86.4   821.83253   11  2 10   721.92231 60.1   821.83189
 10  0 10   748.62623 88.8   821.90746   11  2 10   721.99809 89.4   821.90767
 10  0 10   748.68037 89.4   821.96160   11  2 10   722.05287 86.7   821.96245
 10  0 10   749.15062 89.1   822.43185   11  2 10   722.52238 88.4   822.43196
                                         12  2 10   699.96983 88.9   822.43222
 10  0 10   749.23985 90.0   822.52108   11  2 10   722.61114 74.9   822.52072
 10  0 10   749.27560 83.9   822.55683   11  2 10   722.64626 85.7   822.55584
 10  0 10   749.35175 62.1   822.63298   11  2 10   722.72434 60.7   822.63392
 10  0 10   749.54240 89.6   822.82363   12  2 10   700.36159 87.4   822.82398
 10  0 10   749.58400 89.2   822.86523   11  2 10   722.95611 89.8   822.86569
 10  0 10   749.73498 63.9   823.01621   11  2 10   723.10724 85.7   823.01682
 10  0 10   749.75813 88.9   823.03936   11  2 10   723.13049 71.4   823.04007
 10  0 10   749.94299 23.5   823.22422   11  2 10   723.31520 82.4   823.22478
 10  0 10   749.96731 88.3   823.24854   11  2 10   723.33841 48.4   823.24799
 10  0 10   750.28074 90.0   823.56197   12  2 10   701.09875 90.0   823.56114
 10  0 10   750.51061 62.2   823.79184   11  2 10   723.88314 88.6   823.79272
 10  0 10   750.75340 85.6   824.03463   12  2 10   701.57161 89.1   824.03400
 10  0 10   751.02990 89.5   824.31113   11  2 10   724.40234 88.0   824.31192
 10  0 10   751.15930 70.0   824.44053   11  2 10   724.53098 24.7   824.44056
 10  0 10   751.17831 83.3   824.45954   11  2 10   724.55063 80.8   824.46021
 10  0 10   751.23472 88.4   824.51595   11  2 10   724.60723 21.1   824.51681
 10  0 10   751.26284 83.8   824.54408   12  2 10   702.08202 86.6   824.54441
 10  0 10   751.32601 80.6   824.60724   11  2 10   724.69856 87.3   824.60814
 10  0 10   751.34249 58.3   824.62372   11  2 10   724.71347 59.3   824.62305
 10  0 10   751.81298 85.4   825.09421   11  2 10   725.18424 31.7   825.09382
 10  0 10   751.87215 20.0   825.15338   11  2 10   725.24448 34.7   825.15406
 10  0 10   751.93407 36.4   825.21530   12  2 10   702.75248 76.9   825.21487
 10  0 10   752.04191 89.5   825.32314   11  2 10   725.41415 87.6   825.32373
 10  0 10   752.25171 83.0   825.53294   11  2 10   725.62325 28.7   825.53283
 10  0 10   752.52208 89.1   825.80331   11  2 10   725.89397 66.0   825.80355
 10  0 10   752.55716 50.3   825.83839   11  2 10   725.92959 88.0   825.83917
 10  0 10   752.59277 63.8   825.87400   11  2 10   725.96384 82.6   825.87342
 11  2 10   716.14889 79.4   816.05847   12  2 10   693.59600 76.0   816.05839
 11  2 10   716.15498 83.1   816.06456   12  2 10   693.60175 45.6   816.06414
 11  2 10   716.32964 85.7   816.23922   12  2 10   693.77629 87.0   816.23868
 11  2 10   717.29597 72.7   817.20555   12  2 10   694.74318 82.1   817.20557
 11  2 10   717.91176 66.0   817.82134   12  2 10   695.35827 78.9   817.82066
 11  2 10   718.09100 85.3   818.00058   12  2 10   695.53855 74.1   818.00094
 11  2 10   718.09636 90.0   818.00594   12  2 10   695.54405 89.9   818.00644
 11  2 10   718.63297 89.7   818.54255   12  2 10   696.08057 82.1   818.54296
 11  2 10   718.87905 79.7   818.78863   12  2 10   696.32542 74.4   818.78781
 11  2 10   719.20744 86.5   819.11702   12  2 10   696.65557 90.0   819.11796
 11  2 10   719.34307 53.8   819.25265   12  2 10   696.79014 79.2   819.25253
 11  2 10   719.76174 88.6   819.67132   12  2 10   697.20912 76.1   819.67151
 11  2 10   719.79434 83.3   819.70392   12  2 10   697.24086 89.1   819.70325
 11  2 10   720.07161  9.7   819.98119   12  2 10   697.51928 86.7   819.98167
 11  2 10   720.12317  0.8   820.03275   12  2 10   697.56991 63.5   820.03230
 11  2 10   720.12853 53.9   820.03811   12  2 10   697.57499 26.3   820.03738
 11  2 10   720.32656 85.3   820.23614   12  2 10   697.77399 63.2   820.23638
 11  2 10   720.33107 82.6   820.24065   12  2 10   697.77909 80.1   820.24148
 11  2 10   720.72404  1.3   820.63362   12  2 10   698.17105 54.1   820.63344
 11  2 10   720.76094 87.9   820.67052   12  2 10   698.20828 89.9   820.67067
 11  2 10   720.92264 76.1   820.83222   12  2 10   698.37009 66.7   820.83248
 11  2 10   721.46600 82.6   821.37558   12  2 10   698.91416 73.2   821.37655
 11  2 10   721.78764 89.2   821.69722   12  2 10   699.23474 88.5   821.69713
 11  2 10   722.52238 88.4   822.43196   12  2 10   699.96983 88.9   822.43222
 11  2 10   722.52727 85.1   822.43685   12  2 10   699.97524 56.6   822.43763
 11  2 10   722.81969 87.6   822.72927   12  2 10   700.26767 82.8   822.73006
 11  2 10   723.02125 84.1   822.93083   12  2 10   700.46763 75.7   822.93002
 11  2 10   723.33145 85.9   823.24103   12  2 10   700.77885 77.0   823.24124
 11  2 10   723.43262 46.3   823.34220   12  2 10   700.87949 70.1   823.34188
 11  2 10   723.47601 83.2   823.38559   12  2 10   700.92403 68.3   823.38642
 11  2 10   723.53551 56.1   823.44509   12  2 10   700.98244  8.9   823.44483
 11  2 10   723.70610 76.8   823.61568   12  2 10   701.15287 75.5   823.61526
 11  2 10   724.03204 42.2   823.94162   12  2 10   701.47946 56.9   823.94185
 11  2 10   724.66968 72.0   824.57926   12  2 10   702.11714 69.4   824.57953
 11  2 10   724.70423 23.0   824.61381   12  2 10   702.15168 89.6   824.61407
 11  2 10   724.76143 16.5   824.67101   12  2 10   702.20901 63.0   824.67140
 11  2 10   724.84861 90.0   824.75819   12  2 10   702.29581 77.2   824.75820
 11  2 10   724.88765 25.0   824.79723   12  2 10   702.33539 89.9   824.79778
 11  2 10   724.89429 85.1   824.80387   12  2 10   702.34095 56.5   824.80334
 11  2 10   725.30462 34.4   825.21420   12  2 10   702.75248 76.9   825.21487

 Searching  12  1 11 near    837.76698
 No   1:  11  0 11       87.45132  reg   745.316 -   755.316
 No   2:  12  2 11      116.26948  reg   716.497 -   726.497
 No   3:  13  2 11      141.57645  reg   691.191 -   701.191
 11  0 11   745.43805 58.6   832.88937   13  2 11   691.31280 73.2   832.88925
 11  0 11   745.80898 44.5   833.26030   13  2 11   691.68468 78.4   833.26113
 11  0 11   746.11343 78.1   833.56475   12  2 11   717.29597 72.7   833.56545
 11  0 11   746.12442 54.7   833.57574   12  2 11   717.30559 74.9   833.57507
 11  0 11   746.38598 88.6   833.83730   12  2 11   717.56743 82.4   833.83691
 11  0 11   746.51938 88.4   833.97070   12  2 11   717.70109 74.0   833.97057
 11  0 11   748.30497 56.1   835.75629   12  2 11   719.48719 78.6   835.75667
 11  0 11   748.49620 89.9   835.94752   12  2 11   719.67865 89.8   835.94813
 11  0 11   748.51526 78.6   835.96658   13  2 11   694.39060 71.6   835.96705
 11  0 11   748.64134 86.9   836.09266   12  2 11   719.82307 40.6   836.09255
 11  0 11   748.70566 71.8   836.15698   12  2 11   719.88767 62.0   836.15715
 11  0 11   749.39340 58.1   836.84472   12  2 11   720.57623 84.7   836.84571
 11  0 11   749.48032 67.0   836.93164   12  2 11   720.66184 31.4   836.93132
 11  0 11   749.53714 75.6   836.98846   12  2 11   720.71870 17.4   836.98818
 11  0 11   749.54240 89.6   836.99372   12  2 11   720.72404  1.3   836.99352
 11  0 11   749.56900 73.1   837.02032   13  2 11   695.44371 77.4   837.02016
 11  0 11   749.57881 56.8   837.03013   12  2 11   720.76094 87.9   837.03042
                                         13  2 11   695.45397 87.7   837.03042
 11  0 11   749.61304 76.2   837.06436   13  2 11   695.48796 72.5   837.06441
 11  0 11   749.96731 88.3   837.41863   12  2 11   721.14819 86.9   837.41767
 11  0 11   749.98938 80.0   837.44070   12  2 11   721.17137 80.8   837.44085
 11  0 11   750.00491 33.8   837.45623   12  2 11   721.18688 89.6   837.45636
 11  0 11   750.07423 71.2   837.52555   12  2 11   721.25653 88.8   837.52601
 11  0 11   750.49614 79.2   837.94746   12  2 11   721.67822 82.2   837.94770
 11  0 11   750.72936 87.2   838.18068   12  2 11   721.91140 76.7   838.18088
 11  0 11   751.14374 88.4   838.59506   12  2 11   722.32607 83.1   838.59555
 11  0 11   751.15930 70.0   838.61062   12  2 11   722.34093 74.7   838.61041
 11  0 11   751.26284 83.8   838.71416   12  2 11   722.44413 85.6   838.71361
 11  0 11   751.26793 87.3   838.71925   12  2 11   722.44944 66.5   838.71892
 11  0 11   751.53566 86.9   838.98698   12  2 11   722.71794 72.5   838.98742
 11  0 11   751.91025 90.0   839.36157   12  2 11   723.09262 34.2   839.36210
 11  0 11   751.93407 36.4   839.38539   12  2 11   723.11580 85.0   839.38528
 11  0 11   752.14153 52.2   839.59285   13  2 11   698.01663 83.5   839.59308
 11  0 11   752.25171 83.0   839.70303   12  2 11   723.43262 46.3   839.70210
 11  0 11   752.27970 87.1   839.73102   12  2 11   723.46076 71.0   839.73024
 11  0 11   752.36529 63.5   839.81661   12  2 11   723.54658 30.1   839.81606
 11  0 11   752.37109 77.6   839.82241   12  2 11   723.55253 85.7   839.82201
 11  0 11   752.85063 89.2   840.30195   12  2 11   724.03204 42.2   840.30152
 11  0 11   753.47172 88.5   840.92304   12  2 11   724.65298 29.8   840.92246
 11  0 11   753.64004 89.1   841.09136   12  2 11   724.82249 29.4   841.09197
 11  0 11   753.67606 84.3   841.12738   12  2 11   724.85823 71.3   841.12771
 11  0 11   753.93210 87.8   841.38342   12  2 11   725.11412 86.8   841.38360
 11  0 11   753.94655 58.7   841.39787   12  2 11   725.12897 49.9   841.39845
                                         13  2 11   699.82088 59.7   841.39733
 11  0 11   754.22723 85.9   841.67855   13  2 11   700.10139 80.0   841.67784
 11  0 11   754.36708 89.0   841.81840   12  2 11   725.54950 56.4   841.81898
 11  0 11   754.48344 79.9   841.93476   12  2 11   725.66479 47.1   841.93427
 11  0 11   754.59229 85.4   842.04361   13  2 11   700.46763 75.7   842.04408
 11  0 11   754.59871 85.7   842.05003   12  2 11   725.78040 44.1   842.04988
 11  0 11   754.64376 82.3   842.09508   13  2 11   700.51785 83.6   842.09430
 11  0 11   754.66748 90.0   842.11880   13  2 11   700.54317 66.1   842.11962
 11  0 11   754.67393 81.3   842.12525   12  2 11   725.85545 75.7   842.12493
 11  0 11   754.77123 88.9   842.22255   12  2 11   725.95235 85.5   842.22183
 11  0 11   755.19684 62.2   842.64816   12  2 11   726.37962 89.8   842.64910
 11  0 11   755.23066 87.8   842.68198   13  2 11   701.10647 67.5   842.68292
 12  2 11   716.53299 88.4   832.80247   13  2 11   691.22647 89.9   832.80292
 12  2 11   716.68010 80.3   832.94958   13  2 11   691.37282 85.7   832.94927
 12  2 11   716.69304 89.9   832.96252   13  2 11   691.38664 88.8   832.96309
 12  2 11   716.74568 83.2   833.01516   13  2 11   691.43899 88.3   833.01544
 12  2 11   716.98068 80.7   833.25016   13  2 11   691.67365 74.2   833.25010
 12  2 11   717.16450 76.0   833.43398   13  2 11   691.85757 81.1   833.43402
 12  2 11   717.93349 81.6   834.20297   13  2 11   692.62724 88.7   834.20369
 12  2 11   718.22299 84.9   834.49247   13  2 11   692.91617 64.1   834.49262
 12  2 11   718.42203 80.7   834.69151   13  2 11   693.11466 60.2   834.69111
 12  2 11   719.08381 84.7   835.35329   13  2 11   693.77629 87.0   835.35274
 12  2 11   719.53798 74.9   835.80746   13  2 11   694.23053 89.1   835.80698
 12  2 11   719.60842 76.6   835.87790   13  2 11   694.30084 88.7   835.87729
 12  2 11   719.76602 86.1   836.03550   13  2 11   694.45866 51.7   836.03511
 12  2 11   719.86608 65.0   836.13556   13  2 11   694.55900 73.2   836.13545
 12  2 11   719.96912 11.9   836.23860   13  2 11   694.66246 71.0   836.23891
 12  2 11   720.00724 26.8   836.27672   13  2 11   694.69940 58.4   836.27585
 12  2 11   720.16765  1.5   836.43713   13  2 11   694.86132 66.0   836.43777
 12  2 11   720.18080 41.4   836.45028   13  2 11   694.87321 51.2   836.44966
 12  2 11   720.76094 87.9   837.03042   13  2 11   695.45397 87.7   837.03042
 12  2 11   720.84538 89.7   837.11486   13  2 11   695.53855 74.1   837.11500
 12  2 11   720.85053 65.8   837.12001   13  2 11   695.54405 89.9   837.12050
 12  2 11   721.01043 86.7   837.27991   13  2 11   695.70400 61.0   837.28045
 12  2 11   722.15030 84.7   838.41978   13  2 11   696.84295 83.9   838.41940
 12  2 11   722.52238 88.4   838.79186   13  2 11   697.21508 66.0   838.79153
 12  2 11   722.53259 79.6   838.80207   13  2 11   697.22576 88.9   838.80221
 12  2 11   722.87629 74.1   839.14577   13  2 11   697.56991 63.5   839.14636
 12  2 11   722.88157 52.4   839.15105   13  2 11   697.57499 26.3   839.15144
 12  2 11   722.96279 74.7   839.23227   13  2 11   697.65525 86.2   839.23170
 12  2 11   723.08552 60.8   839.35500   13  2 11   697.77909 80.1   839.35554
 12  2 11   723.38984 86.9   839.65932   13  2 11   698.08250 83.1   839.65895
 12  2 11   723.67667 84.3   839.94615   13  2 11   698.37009 66.7   839.94654
 12  2 11   723.72936 89.7   839.99884   13  2 11   698.42316 88.6   839.99961
 12  2 11   723.98002 89.4   840.24950   13  2 11   698.67246 89.1   840.24891
 12  2 11   724.15294 85.1   840.42242   13  2 11   698.84620 35.7   840.42265
 12  2 11   724.96164 87.3   841.23112   13  2 11   699.65566 89.7   841.23211
 12  2 11   725.08750 37.0   841.35698   13  2 11   699.78114 86.8   841.35759
 12  2 11   725.70344 81.5   841.97292   13  2 11   700.39591 56.9   841.97236
 12  2 11   725.91703 68.5   842.18651   13  2 11   700.60962 86.1   842.18607
 12  2 11   726.17254 88.0   842.44202   13  2 11   700.86619 60.7   842.44264
 12  2 11   726.29023 75.5   842.55971   13  2 11   700.98244  8.9   842.55889

 Searching  13  1 12 near    855.80587
 No   1:  12  0 12      102.83659  reg   747.969 -   757.969
 No   2:  13  2 12      133.91715  reg   716.889 -   726.889
 No   3:  14  2 12      162.06791  reg   688.738 -   698.738
 12  0 12   748.21454 84.3   851.05113   13  2 12   717.13442 87.8   851.05157
 12  0 12   748.28819 87.8   851.12478   13  2 12   717.20746 77.2   851.12461
 12  0 12   748.55130 86.4   851.38789   13  2 12   717.47001 81.1   851.38716
 12  0 12   748.56125 85.3   851.39784   13  2 12   717.48045 76.0   851.39760
 12  0 12   748.56624 80.9   851.40283   13  2 12   717.48642 82.9   851.40357
 12  0 12   748.59431 88.6   851.43090   14  2 12   689.36340 23.4   851.43131
 12  0 12   748.77195 89.8   851.60854   13  2 12   717.69080 89.2   851.60795
 12  0 12   748.88302 60.3   851.71961   13  2 12   717.80203 70.2   851.71918
 12  0 12   749.03751 77.5   851.87410   13  2 12   717.95610 37.1   851.87325
 12  0 12   749.28722 74.2   852.12381   14  2 12   690.05667 88.9   852.12458
 12  0 12   749.58930 67.3   852.42589   13  2 12   718.50872 81.6   852.42587
 12  0 12   749.61304 76.2   852.44963   14  2 12   690.38079 85.5   852.44870
 12  0 12   749.78177 76.9   852.61836   14  2 12   690.55092 38.7   852.61883
 12  0 12   750.21207 84.5   853.04866   13  2 12   719.13161 85.8   853.04876
 12  0 12   750.28074 90.0   853.11733   14  2 12   691.05007 82.2   853.11798
 12  0 12   750.45839 64.8   853.29498   14  2 12   691.22647 89.9   853.29438
 12  0 12   750.53451 83.3   853.37110   14  2 12   691.30318 89.4   853.37109
 12  0 12   750.62712 89.5   853.46371   14  2 12   691.39633 78.3   853.46424
 12  0 12   750.70064 72.9   853.53723   14  2 12   691.46882 80.2   853.53673
 12  0 12   750.84233 86.9   853.67892   13  2 12   719.76174 88.6   853.67889
 12  0 12   751.02990 89.5   853.86649   13  2 12   719.94961  7.2   853.86676
 12  0 12   751.14374 88.4   853.98033   14  2 12   691.91222 87.6   853.98013
 12  0 12   751.15376 63.8   853.99035   14  2 12   691.92205 88.8   853.98996
 12  0 12   751.34249 58.3   854.17908   13  2 12   720.26269 50.3   854.17984
 12  0 12   751.96595 89.8   854.80254   13  2 12   720.88495 73.0   854.80210
 12  0 12   752.04751  9.6   854.88410   13  2 12   720.96717 86.4   854.88432
 12  0 12   752.14153 52.2   854.97812   13  2 12   721.06111 83.6   854.97826
 12  0 12   752.20351 83.4   855.04010   14  2 12   692.97180 64.0   855.03971
 12  0 12   752.22954 89.8   855.06613   13  2 12   721.14819 86.9   855.06534
 12  0 12   752.25171 83.0   855.08830   13  2 12   721.17137 80.8   855.08852
 12  0 12   752.46186 78.0   855.29845   13  2 12   721.38133 86.3   855.29848
 12  0 12   752.54182 57.4   855.37841   13  2 12   721.46077 68.9   855.37792
 12  0 12   752.55716 50.3   855.39375   13  2 12   721.47579 86.3   855.39294
 12  0 12   753.30420 19.8   856.14079   13  2 12   722.22422 80.6   856.14137
 12  0 12   753.51904 85.0   856.35563   13  2 12   722.43790 52.6   856.35505
 12  0 12   753.89468 86.5   856.73127   14  2 12   694.66246 71.0   856.73037
 12  0 12   754.00545 84.2   856.84204   14  2 12   694.77364 62.5   856.84155
 12  0 12   754.28807 61.8   857.12466   13  2 12   723.20802 70.8   857.12517
 12  0 12   754.33694 61.4   857.17353   13  2 12   723.25634 88.8   857.17349
 12  0 12   754.35741 55.3   857.19400   13  2 12   723.27661 87.2   857.19376
 12  0 12   754.36331 88.9   857.19990   13  2 12   723.28255 60.6   857.19970
 12  0 12   754.40701 88.6   857.24360   13  2 12   723.32595 84.4   857.24310
 12  0 12   754.58605 77.0   857.42264   13  2 12   723.50634 90.0   857.42349
 12  0 12   754.71974 76.2   857.55633   13  2 12   723.63829 52.4   857.55544
                                         14  2 12   695.48796 72.5   857.55587
 12  0 12   755.70897 64.8   858.54556   13  2 12   724.62861 35.3   858.54576
 12  0 12   755.91945 53.5   858.75604   13  2 12   724.83919 84.0   858.75634
 12  0 12   756.34480 88.8   859.18139   13  2 12   725.26409 83.5   859.18124
 12  0 12   756.36025 90.0   859.19684   13  2 12   725.27920 81.8   859.19635
 12  0 12   756.42276 61.5   859.25935   13  2 12   725.34183 64.8   859.25898
 12  0 12   756.63059 51.4   859.46718   13  2 12   725.54950 56.4   859.46665
 12  0 12   756.71343 77.0   859.55002   13  2 12   725.63280 69.5   859.54995
 12  0 12   756.87994 87.5   859.71653   13  2 12   725.80029 87.7   859.71744
 12  0 12   757.26637 73.1   860.10296   14  2 12   698.03484 89.5   860.10275
 12  0 12   757.31466 55.0   860.15125   13  2 12   726.23493 83.6   860.15208
                                         14  2 12   698.08250 83.1   860.15041
 13  2 12   716.90905 85.7   850.82620   14  2 12   688.75812 79.3   850.82603
 13  2 12   717.23151 83.9   851.14866   14  2 12   689.08091 88.1   851.14882
 13  2 12   717.49961 74.1   851.41676   14  2 12   689.34928 82.4   851.41719
 13  2 12   718.38445 88.9   852.30160   14  2 12   690.23378 89.6   852.30169
 13  2 12   718.48540 89.8   852.40255   14  2 12   690.33387 87.5   852.40178
 13  2 12   718.53591 80.4   852.45306   14  2 12   690.38537 88.7   852.45328
 13  2 12   718.87905 79.7   852.79620   14  2 12   690.72829 83.3   852.79620
 13  2 12   718.89851 80.9   852.81566   14  2 12   690.74677 75.3   852.81468
 13  2 12   719.16030  7.6   853.07745   14  2 12   691.01044 63.8   853.07835
 13  2 12   719.33790 18.7   853.25505   14  2 12   691.18733 85.8   853.25524
 13  2 12   719.53798 74.9   853.45513   14  2 12   691.38664 88.8   853.45455
 13  2 12   719.58975 74.5   853.50690   14  2 12   691.43899 88.3   853.50690
 13  2 12   720.31130 45.5   854.22845   14  2 12   692.16089 89.9   854.22880
 13  2 12   720.62212 73.4   854.53927   14  2 12   692.47123 82.0   854.53914
 13  2 12   721.48882 85.9   855.40597   14  2 12   693.33818 84.7   855.40609
 13  2 12   721.54617 70.4   855.46332   14  2 12   693.39627 49.3   855.46418
 13  2 12   721.89946 87.2   855.81661   14  2 12   693.74911 90.0   855.81702
 13  2 12   722.55789 86.7   856.47504   14  2 12   694.40699 88.9   856.47490
 13  2 12   722.62596 78.3   856.54311   14  2 12   694.47591 89.4   856.54382
 13  2 12   723.08552 60.8   857.00267   14  2 12   694.93508 17.5   857.00299
 13  2 12   723.63829 52.4   857.55544   14  2 12   695.48796 72.5   857.55587
 13  2 12   723.69514 89.3   857.61229   14  2 12   695.54405 89.9   857.61196
 13  2 12   723.89768 79.6   857.81483   14  2 12   695.74721 83.1   857.81512
 13  2 12   723.96169 88.5   857.87884   14  2 12   695.81042 43.4   857.87833
 13  2 12   724.39301 88.9   858.31016   14  2 12   696.24208 74.1   858.30999
 13  2 12   724.52401 31.2   858.44116   14  2 12   696.37304 87.5   858.44095
 13  2 12   724.60153 28.4   858.51868   14  2 12   696.45170 89.1   858.51961
 13  2 12   724.92200 87.2   858.83915   14  2 12   696.77143 15.6   858.83934
 13  2 12   724.94086 86.0   858.85801   14  2 12   696.79014 79.2   858.85805
 13  2 12   724.97939 88.9   858.89654   14  2 12   696.82767 86.2   858.89558
 13  2 12   725.01174 34.5   858.92889   14  2 12   696.86029 49.8   858.92820
 13  2 12   725.78650 84.7   859.70365   14  2 12   697.63551 49.2   859.70342
 13  2 12   725.92959 88.0   859.84674   14  2 12   697.77909 80.1   859.84700
 13  2 12   726.08342 34.5   860.00057   14  2 12   697.93346 75.3   860.00137
 13  2 12   726.16794 79.2   860.08509   14  2 12   698.01663 83.5   860.08454
 13  2 12   726.24030 43.8   860.15745   14  2 12   698.08904 82.1   860.15695
 13  2 12   726.49938 73.3   860.41653   14  2 12   698.34822 85.0   860.41613
 13  2 12   726.58208 54.3   860.49923   14  2 12   698.43040 68.3   860.49831
 13  2 12   726.64274 58.2   860.55989   14  2 12   698.49134 64.6   860.55925
 13  2 12   726.81032 87.0   860.72747   14  2 12   698.66052 88.1   860.72843

 Searching  14  1 13 near    875.04314
 No   1:  13  0 13      119.44012  reg   750.603 -   760.603
 No   2:  14  2 13      152.84035  reg   717.203 -   727.203
 No   3:  15  2 13      183.89335  reg   686.150 -   696.150
 13  0 13   750.72936 87.2   870.16948   14  2 13   717.32980 76.7   870.17015
 13  0 13   750.89918 89.2   870.33930   14  2 13   717.49961 74.1   870.33996
 13  0 13   751.01230 89.5   870.45242   14  2 13   717.61117 74.4   870.45152
 13  0 13   751.14901 57.7   870.58913   14  2 13   717.74804 78.0   870.58839
 13  0 13   751.29282 88.1   870.73294   14  2 13   717.89331 84.6   870.73366
 13  0 13   751.80285 65.6   871.24297   14  2 13   718.40292 87.2   871.24327
 13  0 13   751.91025 90.0   871.35037   15  2 13   687.45624 88.8   871.34959
 13  0 13   751.93407 36.4   871.37419   15  2 13   687.48063 86.6   871.37398
 13  0 13   751.99987 89.4   871.43999   14  2 13   718.59865 11.5   871.43900
 13  0 13   752.04191 89.5   871.48203   14  2 13   718.64157 82.4   871.48192
 13  0 13   752.04751  9.6   871.48763   14  2 13   718.64685 81.2   871.48720
 13  0 13   752.14153 52.2   871.58165   14  2 13   718.74051 80.7   871.58086
 13  0 13   752.27970 87.1   871.71982   14  2 13   718.87905 79.7   871.71940
 13  0 13   752.51657 33.7   871.95669   15  2 13   688.06277 43.9   871.95612
 13  0 13   752.52208 89.1   871.96220   14  2 13   719.12175 87.1   871.96210
 13  0 13   752.83982 24.2   872.27994   14  2 13   719.44008 29.7   872.28043
 13  0 13   753.47172 88.5   872.91184   14  2 13   720.07161  9.7   872.91196
 13  0 13   753.51904 85.0   872.95916   14  2 13   720.11863  1.5   872.95898
 13  0 13   754.22723 85.9   873.66735   14  2 13   720.82773 59.3   873.66808
 13  0 13   754.24516 88.3   873.68528   14  2 13   720.84538 89.7   873.68573
 13  0 13   754.36708 89.0   873.80720   14  2 13   720.96717 86.4   873.80752
 13  0 13   754.38721 66.1   873.82733   14  2 13   720.98687 69.9   873.82722
 13  0 13   754.55997 69.7   874.00009   15  2 13   690.10760 87.8   874.00095
 13  0 13   754.60943 80.9   874.04955   14  2 13   721.20889 25.5   874.04924
 13  0 13   754.91075 88.1   874.35087   15  2 13   690.45823 69.5   874.35158
 13  0 13   755.70897 64.8   875.14909   15  2 13   691.25490 53.6   875.14825
 13  0 13   755.99160 86.1   875.43172   14  2 13   722.59063 75.9   875.43098
 13  0 13   756.28228 72.4   875.72240   14  2 13   722.88157 52.4   875.72192
 13  0 13   756.35561 87.6   875.79573   14  2 13   722.95611 89.8   875.79646
                                         15  2 13   691.90164 89.5   875.79499
 13  0 13   756.36025 90.0   875.80037   15  2 13   691.90674 41.3   875.80009
 13  0 13   757.31466 55.0   876.75478   14  2 13   723.91420 49.2   876.75455
 13  0 13   757.43221 79.6   876.87233   14  2 13   724.03204 42.2   876.87239
                                         15  2 13   692.97826 67.3   876.87161
 13  0 13   757.58480 62.3   877.02492   14  2 13   724.18413 88.1   877.02448
 13  0 13   757.96620 90.0   877.40632   14  2 13   724.56595 21.0   877.40630
 13  0 13   758.59149 42.2   878.03161   15  2 13   694.13829 88.7   878.03164
 13  0 13   758.75392 60.3   878.19404   15  2 13   694.30084 88.7   878.19419
 13  0 13   758.84667 89.6   878.28679   14  2 13   725.44572 76.5   878.28607
 13  0 13   759.25506 88.4   878.69518   14  2 13   725.85545 75.7   878.69580
 13  0 13   759.31490 65.9   878.75502   15  2 13   694.86132 66.0   878.75467
 13  0 13   759.36334 62.5   878.80346   14  2 13   725.96384 82.6   878.80419
 13  0 13   759.39076 71.8   878.83088   14  2 13   725.99079 50.5   878.83114
 13  0 13   759.48430 84.4   878.92442   14  2 13   726.08342 34.5   878.92377
 13  0 13   759.55218 88.2   878.99230   14  2 13   726.15216 11.7   878.99251
 13  0 13   759.98209  7.6   879.42221   14  2 13   726.58208 54.3   879.42243
 13  0 13   759.99215 41.3   879.43227   15  2 13   695.53855 74.1   879.43190
 13  0 13   759.99758 87.3   879.43770   15  2 13   695.54405 89.9   879.43740
 13  0 13   760.18779 53.8   879.62791   14  2 13   726.78800 79.5   879.62835
 13  0 13   760.41197 84.3   879.85209   15  2 13   695.95845 85.6   879.85180
 14  2 13   717.58187 76.9   870.42222   15  2 13   686.52984 43.0   870.42319
 14  2 13   717.83180 84.1   870.67215   15  2 13   686.77891 76.7   870.67226
 14  2 13   718.34130 88.3   871.18165   15  2 13   687.28843 88.9   871.18178
 14  2 13   718.50872 81.6   871.34907   15  2 13   687.45624 88.8   871.34959
 14  2 13   719.05409 65.4   871.89444   15  2 13   688.00110 56.4   871.89445
 14  2 13   719.80485 79.3   872.64520   15  2 13   688.75173 87.4   872.64508
 14  2 13   720.19676 22.2   873.03711   15  2 13   689.14394 62.8   873.03729
 14  2 13   720.32656 85.3   873.16691   15  2 13   689.27426 88.9   873.16761
 14  2 13   720.90651 59.6   873.74686   15  2 13   689.85281 84.4   873.74616
 14  2 13   721.18229 87.9   874.02264   15  2 13   690.13026 74.6   874.02361
 14  2 13   721.42832 78.8   874.26867   15  2 13   690.37571 70.5   874.26906
 14  2 13   721.43756 26.1   874.27791   15  2 13   690.38537 88.7   874.27872
 14  2 13   722.22422 80.6   875.06457   15  2 13   691.17099 88.1   875.06434
 14  2 13   722.32607 83.1   875.16642   15  2 13   691.27384 53.0   875.16719
 14  2 13   722.44944 66.5   875.28979   15  2 13   691.39633 78.3   875.28968
 14  2 13   722.49265 85.1   875.33300   15  2 13   691.43899 88.3   875.33234
 14  2 13   722.49717 90.0   875.33752   15  2 13   691.44371 87.2   875.33706
 14  2 13   722.52238 88.4   875.36273   15  2 13   691.46882 80.2   875.36217
 14  2 13   722.52727 85.1   875.36762   15  2 13   691.47454 53.6   875.36789
 14  2 13   723.21402 70.7   876.05437   15  2 13   692.16089 89.9   876.05424
 14  2 13   723.28255 60.6   876.12290   15  2 13   692.22994 84.4   876.12329
 14  2 13   723.53551 56.1   876.37586   15  2 13   692.48296 89.5   876.37631
 14  2 13   724.02548 84.9   876.86583   15  2 13   692.97180 64.0   876.86515
 14  2 13   724.03204 42.2   876.87239   15  2 13   692.97826 67.3   876.87161
 14  2 13   724.47083 80.8   877.31118   15  2 13   693.41735 88.9   877.31070
 14  2 13   724.63808 79.7   877.47843   15  2 13   693.58421 87.2   877.47756
 14  2 13   724.82851 17.1   877.66886   15  2 13   693.77629 87.0   877.66964
 14  2 13   725.34183 64.8   878.18218   15  2 13   694.28961 88.1   878.18295
 14  2 13   725.71556 66.5   878.55591   15  2 13   694.66246 71.0   878.55581
 14  2 13   725.79550 86.9   878.63585   15  2 13   694.74318 82.1   878.63653
 14  2 13   726.04560 61.1   878.88595   15  2 13   694.99267 83.4   878.88602
 14  2 13   726.21049 62.7   879.05084   15  2 13   695.15756 80.2   879.05091
 14  2 13   726.22587 85.7   879.06623   15  2 13   695.17364 89.1   879.06699
 14  2 13   726.79442 73.5   879.63477   15  2 13   695.74152 84.9   879.63487
 14  2 13   726.82081 89.3   879.66116   15  2 13   695.76771 86.5   879.66106
 14  2 13   727.13269 84.6   879.97304   15  2 13   696.08057 82.1   879.97392

 Searching  15  1 14 near    895.47252
 No   1:  14  0 14      137.26441  reg   753.208 -   763.208
 No   2:  15  2 14      173.02821  reg   717.444 -   727.444
 No   3:  16  2 14      207.00800  reg   683.465 -   693.465
 14  0 14   753.67606 84.3   890.94047   15  2 14   717.91176 66.0   890.93997
 14  0 14   753.98118 85.8   891.24559   15  2 14   718.21741 40.3   891.24562
 14  0 14   754.28807 61.8   891.55248   15  2 14   718.52427 80.3   891.55248
                                         16  2 14   684.54396 31.1   891.55196
 14  0 14   754.35741 55.3   891.62182   15  2 14   718.59263 88.8   891.62084
 14  0 14   754.36331 88.9   891.62772   15  2 14   718.59865 11.5   891.62686
 14  0 14   754.64376 82.3   891.90817   15  2 14   718.87905 79.7   891.90726
                                         16  2 14   684.89995 88.6   891.90795
 14  0 14   755.19684 62.2   892.46125   15  2 14   719.43281 80.8   892.46102
 14  0 14   755.78261 76.4   893.04702   15  2 14   720.01887 34.1   893.04708
 14  0 14   755.99160 86.1   893.25601   15  2 14   720.22823 82.8   893.25644
 14  0 14   756.38663 84.8   893.65104   15  2 14   720.62212 73.4   893.65033
 14  0 14   756.92000 86.7   894.18441   15  2 14   721.15706 81.7   894.18527
 14  0 14   757.30940 55.1   894.57381   15  2 14   721.54617 70.4   894.57438
 14  0 14   757.43221 79.6   894.69662   15  2 14   721.66764 85.7   894.69585
 14  0 14   758.69036 73.3   895.95477   15  2 14   722.92694 61.0   895.95515
 14  0 14   758.72690 89.6   895.99131   15  2 14   722.96279 74.7   895.99100
 14  0 14   758.99801 89.4   896.26242   16  2 14   689.25467 86.3   896.26267
 14  0 14   759.15448 89.2   896.41889   15  2 14   723.38984 86.9   896.41805
 14  0 14   759.35379 66.8   896.61820   15  2 14   723.59051 70.0   896.61872
 14  0 14   759.79013 68.5   897.05454   15  2 14   724.02548 84.9   897.05369
 14  0 14   760.07690 44.5   897.34131   16  2 14   690.33387 87.5   897.34187
 14  0 14   760.11877 72.9   897.38318   16  2 14   690.37571 70.5   897.38371
 14  0 14   760.30106 36.6   897.56547   15  2 14   724.53753 21.7   897.56574
 14  0 14   760.38173 51.4   897.64614   15  2 14   724.61861 31.2   897.64682
 14  0 14   760.59686 35.4   897.86127   15  2 14   724.83374 25.9   897.86195
 14  0 14   760.79266 19.3   898.05707   16  2 14   691.05007 82.2   898.05807
 14  0 14   761.49357 13.1   898.75798   15  2 14   725.73040 60.8   898.75861
 14  0 14   761.80491 50.5   899.06932   15  2 14   726.04031 87.3   899.06852
 14  0 14   761.83335 87.4   899.09776   15  2 14   726.06900 57.0   899.09721
 14  0 14   762.73624 45.9   900.00065   15  2 14   726.97214 75.3   900.00035
 14  0 14   762.77001 73.4   900.03442   15  2 14   727.00674 78.1   900.03495
 14  0 14   763.01466 88.7   900.27907   16  2 14   693.27068 63.2   900.27868
 14  0 14   763.06291 89.6   900.32732   15  2 14   727.29921 89.9   900.32742
 14  0 14   763.14062 77.2   900.40503   16  2 14   693.39627 49.3   900.40427
 14  0 14   763.16544 82.9   900.42985   15  2 14   727.40261 77.8   900.43082
 15  2 14   718.52427 80.3   891.55248   16  2 14   684.54396 31.1   891.55196
 15  2 14   718.87905 79.7   891.90726   16  2 14   684.89995 88.6   891.90795
 15  2 14   719.60842 76.6   892.63663   16  2 14   685.62909 80.9   892.63709
 15  2 14   719.84108 73.5   892.86929   16  2 14   685.86042 89.9   892.86842
 15  2 14   719.84519 87.0   892.87340   16  2 14   685.86609  4.8   892.87409
 15  2 14   721.16656 87.1   894.19477   16  2 14   687.18702 22.5   894.19502
 15  2 14   721.19611 62.4   894.22432   16  2 14   687.21726 36.9   894.22526
 15  2 14   721.20889 25.5   894.23710   16  2 14   687.22849 80.4   894.23649
 15  2 14   721.46077 68.9   894.48898   16  2 14   687.48063 86.6   894.48863
 15  2 14   721.98189 86.4   895.01010   16  2 14   688.00110 56.4   895.00910
 15  2 14   722.10830 85.2   895.13651   16  2 14   688.12872 88.2   895.13672
 15  2 14   722.13281 70.4   895.16102   16  2 14   688.15327 69.6   895.16127
 15  2 14   722.22422 80.6   895.25243   16  2 14   688.24398 88.1   895.25198
 15  2 14   723.06166 86.8   896.08987   16  2 14   689.08091 88.1   896.08891
 15  2 14   723.48177 67.9   896.50998   16  2 14   689.50234 88.4   896.51034
 15  2 14   723.48778 80.2   896.51599   16  2 14   689.50863 88.9   896.51663
 15  2 14   723.60852 84.5   896.63673   16  2 14   689.62921 23.7   896.63721
 15  2 14   724.03716 86.3   897.06537   16  2 14   690.05667 88.9   897.06467
 15  2 14   724.11037 88.8   897.13858   16  2 14   690.13026 74.6   897.13826
 15  2 14   724.53098 24.7   897.55919   16  2 14   690.55092 38.7   897.55892
 15  2 14   724.93624 89.2   897.96445   16  2 14   690.95741 79.2   897.96541
 15  2 14   725.12351 85.4   898.15172   16  2 14   691.14286 67.7   898.15086
 15  2 14   725.14559 89.2   898.17380   16  2 14   691.16592 78.2   898.17392
 15  2 14   725.15096 80.8   898.17917   16  2 14   691.17099 88.1   898.17899
 15  2 14   725.21698 85.6   898.24519   16  2 14   691.23759 89.4   898.24559
 15  2 14   725.41415 87.6   898.44236   16  2 14   691.43429 84.0   898.44229
 15  2 14   725.52587 37.7   898.55408   16  2 14   691.54531 83.7   898.55331
 15  2 14   725.55546 86.2   898.58367   16  2 14   691.57612 36.5   898.58412
 15  2 14   725.66479 47.1   898.69300   16  2 14   691.68468 78.4   898.69268
 15  2 14   726.01400 56.7   899.04221   16  2 14   692.03428 89.3   899.04228
 15  2 14   726.21049 62.7   899.23870   16  2 14   692.22994 84.4   899.23794
 15  2 14   726.45075 73.7   899.47896   16  2 14   692.47123 82.0   899.47923
 15  2 14   726.95173 87.2   899.97994   16  2 14   692.97180 64.0   899.97980
 15  2 14   727.24949 88.4   900.27770   16  2 14   693.27068 63.2   900.27868
 15  2 14   727.39709 88.1   900.42530   16  2 14   693.41735 88.9   900.42535

 Searching  16  1 15 near    917.09475
 No   1:  15  0 15      156.31130  reg   755.783 -   765.783
 No   2:  16  2 15      194.47136  reg   717.623 -   727.623
 No   3:  17  2 15      231.36966  reg   680.725 -   690.725
 15  0 15   755.86080 41.9   912.17210   16  2 15   717.70109 74.0   912.17245
 15  0 15   755.99160 86.1   912.30290   16  2 15   717.83180 84.1   912.30316
 15  0 15   756.36025 90.0   912.67155   17  2 15   681.30243 87.6   912.67209
 15  0 15   756.63059 51.4   912.94189   17  2 15   681.57260 86.3   912.94226
 15  0 15   756.67447 57.7   912.98577   16  2 15   718.51422 81.3   912.98558
 15  0 15   757.21595 88.4   913.52725   17  2 15   682.15843 65.5   913.52809
 15  0 15   757.26637 73.1   913.57767   16  2 15   719.10584 86.9   913.57720
 15  0 15   757.30940 55.1   913.62070   16  2 15   719.14958 87.3   913.62094
 15  0 15   757.31466 55.0   913.62596   16  2 15   719.15436 88.5   913.62572
 15  0 15   757.58480 62.3   913.89610   17  2 15   682.52604 36.3   913.89570
 15  0 15   757.69834 44.7   914.00964   16  2 15   719.53798 74.9   914.00934
 15  0 15   757.86052 87.0   914.17182   17  2 15   682.80177 89.1   914.17143
 15  0 15   758.69036 73.3   915.00166   16  2 15   720.52997  1.4   915.00133
 15  0 15   758.83676 87.7   915.14806   16  2 15   720.67727 62.0   915.14863
 15  0 15   759.34288 75.1   915.65418   16  2 15   721.18229 87.9   915.65365
 15  0 15   759.34831 89.1   915.65961   17  2 15   684.28925 84.8   915.65891
 15  0 15   759.38429 85.8   915.69559   17  2 15   684.32556 86.4   915.69522
 15  0 15   759.39076 71.8   915.70206   17  2 15   684.33177 84.2   915.70143
 15  0 15   759.48430 84.4   915.79560   16  2 15   721.32425 85.5   915.79561
 15  0 15   759.99758 87.3   916.30888   16  2 15   721.83706 86.5   916.30842
 15  0 15   760.08231 85.7   916.39361   16  2 15   721.92231 60.1   916.39367
 15  0 15   760.18779 53.8   916.49909   16  2 15   722.02708 75.8   916.49844
 15  0 15   760.41197 84.3   916.72327   16  2 15   722.25282 78.0   916.72418
 15  0 15   760.69831 83.3   917.00961   16  2 15   722.53863 82.0   917.00999
 15  0 15   761.51161 81.7   917.82291   16  2 15   723.35193 70.9   917.82329
 15  0 15   762.04300 67.0   918.35430   16  2 15   723.88314 88.6   918.35450
 15  0 15   762.05696 42.0   918.36826   16  2 15   723.89768 79.6   918.36904
 15  0 15   762.09912 86.2   918.41042   16  2 15   723.93909 74.7   918.41045
 15  0 15   762.12088 89.9   918.43218   16  2 15   723.96169 88.5   918.43305
 15  0 15   762.19671 64.9   918.50801   16  2 15   724.03716 86.3   918.50852
 15  0 15   762.66876 71.0   918.98006   16  2 15   724.50895 76.5   918.98031
                                         17  2 15   687.61024 78.3   918.97990
 15  0 15   762.67825 88.2   918.98955   16  2 15   724.51816 86.4   918.98952
 15  0 15   762.77893 86.7   919.09023   16  2 15   724.61861 31.2   919.08997
 15  0 15   763.13092 59.5   919.44222   16  2 15   724.97043 84.5   919.44179
 15  0 15   763.16544 82.9   919.47674   16  2 15   725.00552 89.8   919.47688
 15  0 15   763.27016 88.9   919.58146   16  2 15   725.10943 85.8   919.58079
 15  0 15   763.41838 73.2   919.72968   16  2 15   725.25862 43.3   919.72998
 15  0 15   763.80328 69.1   920.11458   16  2 15   725.64235 77.7   920.11371
 15  0 15   763.80911 89.4   920.12041   17  2 15   688.75173 87.4   920.12139
 15  0 15   763.82553 88.8   920.13683   16  2 15   725.66479 47.1   920.13615
 15  0 15   763.94080 54.1   920.25210   16  2 15   725.78040 44.1   920.25176
 15  0 15   763.96461 61.6   920.27591   16  2 15   725.80491 87.2   920.27627
 15  0 15   763.96964 60.7   920.28094   16  2 15   725.80951 86.1   920.28087
 15  0 15   764.02009 51.6   920.33139   16  2 15   725.86097 65.0   920.33233
 15  0 15   764.13626 74.7   920.44756   16  2 15   725.97570 84.1   920.44706
 15  0 15   764.17487 68.1   920.48617   16  2 15   726.01400 56.7   920.48536
 15  0 15   764.23604 75.3   920.54734   17  2 15   689.17689 88.8   920.54655
 15  0 15   764.32738 72.5   920.63868   16  2 15   726.16794 79.2   920.63930
 15  0 15   764.40854 67.0   920.71984   17  2 15   689.34928 82.4   920.71894
 15  0 15   764.46100 85.4   920.77230   16  2 15   726.30109 88.0   920.77245
 15  0 15   764.56732 89.3   920.87862   17  2 15   689.50863 88.9   920.87829
 15  0 15   764.68749 76.8   920.99879   17  2 15   689.62921 23.7   920.99887
 15  0 15   764.75006 63.0   921.06136   16  2 15   726.58905 60.5   921.06041
 15  0 15   764.84877 85.2   921.16007   16  2 15   726.68895 83.7   921.16031
 15  0 15   764.95304 74.7   921.26434   17  2 15   689.89459 87.1   921.26425
 15  0 15   765.17704 84.4   921.48834   16  2 15   727.01676 88.8   921.48812
 15  0 15   765.45987 89.8   921.77117   16  2 15   727.29921 89.9   921.77057
 15  0 15   765.68062 78.7   921.99192   16  2 15   727.52135 89.1   921.99271
 15  0 15   765.70032 86.7   922.01162   16  2 15   727.53970 86.6   922.01106
 15  0 15   765.78016 50.4   922.09146   16  2 15   727.61965 45.1   922.09101
 16  2 15   718.56932 81.8   913.04068   17  2 15   681.67172 87.6   913.04138
 16  2 15   718.74051 80.7   913.21187   17  2 15   681.84202 70.8   913.21168
 16  2 15   718.76302 81.0   913.23438   17  2 15   681.86504 87.0   913.23470
 16  2 15   719.26111 87.1   913.73247   17  2 15   682.36194 85.4   913.73160
 16  2 15   719.78068 89.3   914.25204   17  2 15   682.88303 88.2   914.25269
 16  2 15   719.87614 79.4   914.34750   17  2 15   682.97758 84.2   914.34724
 16  2 15   720.11863  1.5   914.58999   17  2 15   683.22041 31.4   914.59007
 16  2 15   720.49816 85.5   914.96952   17  2 15   683.60003 71.0   914.96969
 16  2 15   721.07061 59.6   915.54197   17  2 15   684.17249 85.5   915.54215
 16  2 15   721.15706 81.7   915.62842   17  2 15   684.25907 89.6   915.62873
 16  2 15   721.18688 89.6   915.65824   17  2 15   684.28925 84.8   915.65891
 16  2 15   721.22927 86.6   915.70063   17  2 15   684.33177 84.2   915.70143
 16  2 15   721.37635 71.8   915.84771   17  2 15   684.47743 83.3   915.84709
 16  2 15   721.48882 85.9   915.96018   17  2 15   684.59080 77.2   915.96046
 16  2 15   721.89946 87.2   916.37082   17  2 15   685.00077 89.8   916.37043
 16  2 15   722.02708 75.8   916.49844   17  2 15   685.12821 87.0   916.49787
 16  2 15   722.05287 86.7   916.52423   17  2 15   685.15391 64.3   916.52357
 16  2 15   722.11414 76.3   916.58550   17  2 15   685.21676 31.3   916.58642
 16  2 15   722.52727 85.1   916.99863   17  2 15   685.62909 80.9   916.99875
 16  2 15   722.53259 79.6   917.00395   17  2 15   685.63456 62.6   917.00422
 16  2 15   722.63114 53.7   917.10250   17  2 15   685.73214 90.0   917.10180
 16  2 15   723.47045 86.0   917.94181   17  2 15   686.57279 70.5   917.94245
 16  2 15   723.67667 84.3   918.14803   17  2 15   686.77891 76.7   918.14857
 16  2 15   724.02548 84.9   918.49684   17  2 15   687.12769 85.3   918.49735
 16  2 15   724.05041 22.0   918.52177   17  2 15   687.15299 86.7   918.52265
 16  2 15   724.40234 88.0   918.87370   17  2 15   687.50442 24.8   918.87408
 16  2 15   724.50895 76.5   918.98031   17  2 15   687.61024 78.3   918.97990
 16  2 15   724.56107 29.3   919.03243   17  2 15   687.66205 88.5   919.03171
 16  2 15   724.62280 41.3   919.09416   17  2 15   687.72381 84.9   919.09347
 16  2 15   724.83374 25.9   919.30510   17  2 15   687.93612 81.3   919.30578
 16  2 15   724.96164 87.3   919.43300   17  2 15   688.06277 43.9   919.43243
 16  2 15   725.02653 11.5   919.49789   17  2 15   688.12872 88.2   919.49838
 16  2 15   725.34183 64.8   919.81319   17  2 15   688.44416 66.6   919.81382
 16  2 15   725.69772 26.6   920.16908   17  2 15   688.79929 78.7   920.16895
 16  2 15   726.15216 11.7   920.62352   17  2 15   689.25467 86.3   920.62433
 16  2 15   726.17254 88.0   920.64390   17  2 15   689.27426 88.9   920.64392
 16  2 15   727.00674 78.1   921.47810   17  2 15   690.10760 87.8   921.47726
 16  2 15   727.13269 84.6   921.60405   17  2 15   690.23378 89.6   921.60344
 16  2 15   727.28829 57.1   921.75965   17  2 15   690.39047 86.7   921.76013

 Searching  17  1 16 near    939.91432
 No   1:  16  0 16      176.58207  reg   758.332 -   768.332
 No   2:  17  2 16      217.16203  reg   717.752 -   727.752
 No   3:  18  2 16      256.94325  reg   677.971 -   687.971
 16  0 16   758.62834 84.2   935.21041   18  2 16   678.26705 85.0   935.21030
 16  0 16   759.14461 52.2   935.72668   18  2 16   678.78423 66.5   935.72748
 16  0 16   759.25506 88.4   935.83713   17  2 16   718.67499 11.8   935.83702
 16  0 16   759.31490 65.9   935.89697   17  2 16   718.73517 76.6   935.89720
 16  0 16   759.34288 75.1   935.92495   17  2 16   718.76302 81.0   935.92505
 16  0 16   759.34831 89.1   935.93038   17  2 16   718.76884 89.6   935.93087
 16  0 16   759.47825 83.8   936.06032   17  2 16   718.89851 80.9   936.06054
 16  0 16   759.82258 84.5   936.40465   17  2 16   719.24214 89.0   936.40417
 16  0 16   760.11877 72.9   936.70084   17  2 16   719.53798 74.9   936.70001
 16  0 16   760.18779 53.8   936.76986   17  2 16   719.60842 76.6   936.77045
 16  0 16   760.52065 64.7   937.10272   17  2 16   719.93998 78.6   937.10200
 16  0 16   760.69831 83.3   937.28038   17  2 16   720.11863  1.5   937.28066
 16  0 16   760.71245 34.2   937.29452   18  2 16   680.35223 79.8   937.29548
 16  0 16   760.83930 56.6   937.42137   17  2 16   720.25850 70.8   937.42053
 16  0 16   761.12814 87.6   937.71021   18  2 16   680.76597 89.6   937.70922
 16  0 16   761.31074 82.3   937.89281   18  2 16   680.95041 84.2   937.89366
 16  0 16   762.04300 67.0   938.62507   18  2 16   681.68181 89.7   938.62506
 16  0 16   762.05081 90.0   938.63288   17  2 16   721.47024 64.7   938.63227
 16  0 16   762.12088 89.9   938.70295   17  2 16   721.54037 88.6   938.70240
                                         18  2 16   681.75886 78.9   938.70211
 16  0 16   762.19671 64.9   938.77878   17  2 16   721.61612 89.6   938.77815
 16  0 16   762.68759 67.8   939.26966   17  2 16   722.10830 85.2   939.27033
 16  0 16   762.76329 16.0   939.34536   18  2 16   682.40111 79.1   939.34436
 16  0 16   762.83328 86.8   939.41535   17  2 16   722.25282 78.0   939.41485
 16  0 16   763.27016 88.9   939.85223   17  2 16   722.68952 89.8   939.85155
 16  0 16   763.75028 72.4   940.33235   18  2 16   683.38948 39.3   940.33273
 16  0 16   763.75643 86.3   940.33850   18  2 16   683.39540 89.3   940.33865
 16  0 16   763.83640 86.1   940.41847   17  2 16   723.25634 88.8   940.41837
 16  0 16   763.87437 84.3   940.45644   17  2 16   723.29359 52.5   940.45562
 16  0 16   763.96964 60.7   940.55171   17  2 16   723.38984 86.9   940.55187
 16  0 16   764.04037 82.4   940.62244   17  2 16   723.46076 71.0   940.62279
 16  0 16   764.05001 73.1   940.63208   17  2 16   723.47045 86.0   940.63248
 16  0 16   764.05512 85.4   940.63719   17  2 16   723.47601 83.2   940.63804
 16  0 16   764.06243 87.7   940.64450   17  2 16   723.48177 67.9   940.64380
 16  0 16   764.11587 62.2   940.69794   17  2 16   723.53551 56.1   940.69754
 16  0 16   764.18551 86.6   940.76758   18  2 16   683.82360 42.6   940.76685
 16  0 16   764.21853 65.0   940.80060   17  2 16   723.63829 52.4   940.80032
 16  0 16   764.62983 72.7   941.21190   17  2 16   724.05041 22.0   941.21244
 16  0 16   764.68749 76.8   941.26956   18  2 16   684.32556 86.4   941.26881
 16  0 16   764.82367 89.2   941.40574   17  2 16   724.24364 38.7   941.40567
 16  0 16   765.05045 76.7   941.63252   17  2 16   724.47083 80.8   941.63286
 16  0 16   765.27766 76.8   941.85973   17  2 16   724.69856 87.3   941.86059
 16  0 16   765.41319 87.7   941.99526   17  2 16   724.83374 25.9   941.99577
 16  0 16   765.45987 89.8   942.04194   17  2 16   724.88062 39.3   942.04265
 16  0 16   766.14285 34.9   942.72492   17  2 16   725.56346 88.5   942.72549
 16  0 16   766.84662 87.3   943.42869   17  2 16   726.26588 66.0   943.42791
 16  0 16   768.18483 80.3   944.76690   17  2 16   727.60393 89.5   944.76596
 17  2 16   718.59263 88.8   935.75466   18  2 16   678.81127 48.0   935.75452
 17  2 16   718.96717 89.4   936.12920   18  2 16   679.18562 75.0   936.12887
 17  2 16   719.03779 85.6   936.19982   18  2 16   679.25733 73.2   936.20058
 17  2 16   719.57086 64.5   936.73289   18  2 16   679.78876 85.0   936.73201
 17  2 16   719.67865 89.8   936.84068   18  2 16   679.89701 32.4   936.84026
 17  2 16   719.87614 79.4   937.03817   18  2 16   680.09572 83.8   937.03897
 17  2 16   720.04421  1.3   937.20624   18  2 16   680.26340 89.4   937.20665
 17  2 16   720.26269 50.3   937.42472   18  2 16   680.48135 86.1   937.42460
 17  2 16   720.39896 77.1   937.56099   18  2 16   680.61798 89.2   937.56123
 17  2 16   721.14819 86.9   938.31022   18  2 16   681.36698 85.1   938.31023
 17  2 16   721.15706 81.7   938.31909   18  2 16   681.37666 82.7   938.31991
 17  2 16   721.18688 89.6   938.34891   18  2 16   681.40549 60.1   938.34874
 17  2 16   721.54037 88.6   938.70240   18  2 16   681.75886 78.9   938.70211
 17  2 16   721.62233 50.7   938.78436   18  2 16   681.84202 70.8   938.78527
 17  2 16   721.81659 58.3   938.97862   18  2 16   682.03545 89.5   938.97870
 17  2 16   721.93952 84.1   939.10155   18  2 16   682.15843 65.5   939.10168
 17  2 16   722.49265 85.1   939.65468   18  2 16   682.71241 50.6   939.65566
 17  2 16   722.78029 84.7   939.94232   18  2 16   682.99822 87.5   939.94147
 17  2 16   723.58201 45.8   940.74404   18  2 16   683.80086 85.1   940.74411
 17  2 16   724.70423 23.0   941.86626   18  2 16   684.92250 89.0   941.86575
 17  2 16   725.26409 83.5   942.42612   18  2 16   685.48244 79.6   942.42569
 17  2 16   725.36979 89.7   942.53182   18  2 16   685.58867 75.8   942.53192
 17  2 16   725.64235 77.7   942.80438   18  2 16   685.86042 89.9   942.80367
 17  2 16   726.56066 84.6   943.72269   18  2 16   686.77891 76.7   943.72216
 17  2 16   726.93486 76.2   944.09689   18  2 16   687.15299 86.7   944.09624
 17  2 16   727.17319 72.1   944.33522   18  2 16   687.39112 85.9   944.33437
 17  2 16   727.61442 53.6   944.77645   18  2 16   687.83407 71.9   944.77732
 17  2 16   727.75797 83.2   944.91999   18  2 16   687.97712 65.6   944.92037

 Searching  18  1 17 near    963.93687
 No   1:  17  0 17      198.07751  reg   760.859 -   770.859
 No   2:  18  2 17      241.09399  reg   717.843 -   727.843
 No   3:  19  2 17      283.70446  reg   675.232 -   685.232
 17  0 17   761.72928 90.0   959.80679   18  2 17   718.71239 71.0   959.80638
 17  0 17   762.19671 64.9   960.27422   18  2 17   719.17997 89.4   960.27396
 17  0 17   762.23411 74.7   960.31162   18  2 17   719.21749 82.3   960.31148
                                         19  2 17   676.60785 72.0   960.31231
 17  0 17   762.35468 86.1   960.43219   18  2 17   719.33790 18.7   960.43189
 17  0 17   762.58267 89.2   960.66018   19  2 17   676.95525 85.3   960.65971
 17  0 17   762.77893 86.7   960.85644   18  2 17   719.76174 88.6   960.85573
 17  0 17   762.90412 76.7   960.98163   18  2 17   719.88767 62.0   960.98166
 17  0 17   763.01466 88.7   961.09217   18  2 17   719.99891 66.8   961.09290
 17  0 17   763.13092 59.5   961.20843   19  2 17   677.50433 69.2   961.20879
 17  0 17   763.14062 77.2   961.21813   18  2 17   720.12317  0.8   961.21716
 17  0 17   763.52018 52.7   961.59769   18  2 17   720.50364 83.7   961.59763
 17  0 17   763.80911 89.4   961.88662   18  2 17   720.79363  3.2   961.88762
 17  0 17   763.89383 86.8   961.97134   19  2 17   678.26705 85.0   961.97151
 17  0 17   764.21318 89.9   962.29069   18  2 17   721.19611 62.4   962.29010
                                         19  2 17   678.58551 88.8   962.28997
 17  0 17   764.23050 81.9   962.30801   18  2 17   721.21498 85.1   962.30897
 17  0 17   764.26361 72.2   962.34112   18  2 17   721.24751 63.3   962.34150
 17  0 17   764.26964 61.5   962.34715   18  2 17   721.25233 86.4   962.34632
 17  0 17   764.27970 83.6   962.35721   18  2 17   721.26230 25.2   962.35629
 17  0 17   764.29805 79.5   962.37556   18  2 17   721.28222 73.8   962.37621
 17  0 17   764.39203 69.8   962.46954   18  2 17   721.37635 71.8   962.47034
 17  0 17   764.81338 67.2   962.89089   19  2 17   679.18562 75.0   962.89008
 17  0 17   765.05045 76.7   963.12796   18  2 17   722.03384 47.6   963.12783
 17  0 17   765.45987 89.8   963.53738   18  2 17   722.44413 85.6   963.53812
 17  0 17   766.36233 67.2   964.43984   18  2 17   723.34488 87.9   964.43887
 17  0 17   766.36797 89.2   964.44548   18  2 17   723.35193 70.9   964.44592
                                         19  2 17   680.74026 86.6   964.44472
 17  0 17   766.45246 69.7   964.52997   19  2 17   680.82462 88.0   964.52908
 17  0 17   766.74598 83.8   964.82349   18  2 17   723.72936 89.7   964.82335
 17  0 17   767.02339 52.8   965.10090   18  2 17   724.00779 89.0   965.10178
                                         19  2 17   681.39723 89.9   965.10169
 17  0 17   767.62871 89.4   965.70622   18  2 17   724.61297 77.9   965.70696
 17  0 17   767.63547 88.7   965.71298   18  2 17   724.61861 31.2   965.71260
 17  0 17   767.76724 80.9   965.84475   18  2 17   724.75032 20.3   965.84431
 17  0 17   767.83875 89.2   965.91626   18  2 17   724.82249 29.4   965.91648
 17  0 17   768.02774 81.3   966.10525   18  2 17   725.01174 34.5   966.10573
                                         19  2 17   682.40111 79.1   966.10557
 17  0 17   768.04208 83.1   966.11959   18  2 17   725.02653 11.5   966.12052
 17  0 17   769.00261 77.2   967.08012   19  2 17   683.37595 84.0   967.08041
 17  0 17   769.42806 89.8   967.50557   19  2 17   683.80086 85.1   967.50532
 17  0 17   769.69820 77.0   967.77571   19  2 17   684.07184 85.4   967.77630
 17  0 17   769.76479 49.0   967.84230   18  2 17   726.74883 62.7   967.84282
 17  0 17   769.81116 82.9   967.88867   18  2 17   726.79442 73.5   967.88841
 17  0 17   769.85295 87.4   967.93046   18  2 17   726.83646 73.8   967.93045
 17  0 17   770.54164 86.3   968.61915   18  2 17   727.52506 87.2   968.61905
 17  0 17   770.63064 86.9   968.70815   18  2 17   727.61442 53.6   968.70841
 18  2 17   718.24543 77.8   959.33942   19  2 17   675.63505  8.1   959.33951
 18  2 17   718.52987 80.3   959.62386   19  2 17   675.91957 89.0   959.62403
 18  2 17   718.96717 89.4   960.06116   19  2 17   676.35642 88.9   960.06088
 18  2 17   719.21749 82.3   960.31148   19  2 17   676.60785 72.0   960.31231
 18  2 17   719.23635 61.8   960.33034   19  2 17   676.62674 89.5   960.33120
 18  2 17   719.90685  8.2   961.00084   19  2 17   677.29590 80.3   961.00036
 18  2 17   720.25850 70.8   961.35249   19  2 17   677.64878 86.3   961.35324
 18  2 17   720.36146 68.0   961.45545   19  2 17   677.75166 85.9   961.45612
 18  2 17   720.39896 77.1   961.49295   19  2 17   677.78779 86.3   961.49225
 18  2 17   721.19611 62.4   962.29010   19  2 17   678.58551 88.8   962.28997
 18  2 17   721.39556 85.5   962.48955   19  2 17   678.78423 66.5   962.48869
 18  2 17   721.49621 90.0   962.59020   19  2 17   678.88623 90.0   962.59069
 18  2 17   721.55532 61.6   962.64931   19  2 17   678.94522 52.0   962.64968
 18  2 17   722.22976 89.8   963.32375   19  2 17   679.61884 87.7   963.32330
 18  2 17   722.51280 81.6   963.60679   19  2 17   679.90279 89.3   963.60725
 18  2 17   722.52727 85.1   963.62126   19  2 17   679.91600 84.7   963.62046
 18  2 17   722.96279 74.7   964.05678   19  2 17   680.35223 79.8   964.05669
 18  2 17   723.09262 34.2   964.18661   19  2 17   680.48135 86.1   964.18581
 18  2 17   723.27661 87.2   964.37060   19  2 17   680.66623 89.5   964.37069
 18  2 17   723.38331 64.1   964.47730   19  2 17   680.77236 71.6   964.47682
 18  2 17   724.00228 80.8   965.09627   19  2 17   681.39159 44.7   965.09605
 18  2 17   724.00779 89.0   965.10178   19  2 17   681.39723 89.9   965.10169
 18  2 17   724.58939 88.0   965.68338   19  2 17   681.97828 65.4   965.68274
 18  2 17   724.69856 87.3   965.79255   19  2 17   682.08725 60.7   965.79171
 18  2 17   724.89429 85.1   965.98828   19  2 17   682.28442 86.5   965.98888
 18  2 17   725.01174 34.5   966.10573   19  2 17   682.40111 79.1   966.10557
 18  2 17   726.13371 47.1   967.22770   19  2 17   683.52358 88.2   967.22804
 18  2 17   726.21049 62.7   967.30448   19  2 17   683.60003 71.0   967.30449
 18  2 17   726.49938 73.3   967.59337   19  2 17   683.88896 67.8   967.59342
 18  2 17   726.63223 51.5   967.72622   19  2 17   684.02189 85.5   967.72635
 18  2 17   726.64274 58.2   967.73673   19  2 17   684.03310 83.5   967.73756
 18  2 17   726.65462 55.0   967.74861   19  2 17   684.04342 40.9   967.74788
 18  2 17   726.80455 78.0   967.89854   19  2 17   684.19340 86.8   967.89786
 18  2 17   726.94142 48.9   968.03541   19  2 17   684.33177 84.2   968.03623
 18  2 17   727.08856 88.1   968.18255   19  2 17   684.47743 83.3   968.18189
 18  2 17   727.38134 86.1   968.47533   19  2 17   684.77150 85.5   968.47596
 18  2 17   727.84393 83.6   968.93792   19  2 17   685.23291 69.4   968.93737

 Searching  19  1 18 near    989.16769
 No   1:  18  0 18      220.79809  reg   763.370 -   773.370
 No   2:  19  2 18      266.26240  reg   717.905 -   727.905
 No   3:  20  2 18      311.64068  reg   672.527 -   682.527
 18  0 18   763.68190 80.8   984.47999   19  2 18   718.21741 40.3   984.47981
 18  0 18   763.80911 89.4   984.60720   20  2 18   672.96590 89.6   984.60658
 18  0 18   763.82553 88.8   984.62362   19  2 18   718.36219 84.4   984.62459
 18  0 18   763.95032 86.7   984.74841   19  2 18   718.48540 89.8   984.74780
 18  0 18   764.06243 87.7   984.86052   19  2 18   718.59865 11.5   984.86105
 18  0 18   764.29805 79.5   985.09614   19  2 18   718.83321 88.7   985.09561
 18  0 18   764.39203 69.8   985.19012   20  2 18   673.54997 89.2   985.19065
 18  0 18   764.59586 76.0   985.39395   19  2 18   719.13161 85.8   985.39401
 18  0 18   764.62983 72.7   985.42792   19  2 18   719.16623 79.2   985.42863
                                         20  2 18   673.78682 82.1   985.42750
 18  0 18   764.81338 67.2   985.61147   19  2 18   719.34831 83.9   985.61071
 18  0 18   764.82367 89.2   985.62176   19  2 18   719.35862  5.0   985.62102
 18  0 18   764.84877 85.2   985.64686   19  2 18   719.38443 88.8   985.64683
 18  0 18   765.14303 86.0   985.94112   19  2 18   719.67865 89.8   985.94105
 18  0 18   765.41319 87.7   986.21128   19  2 18   719.94961  7.2   986.21201
 18  0 18   765.58750 12.0   986.38559   19  2 18   720.12317  0.8   986.38557
 18  0 18   765.98358 82.9   986.78167   19  2 18   720.51962 85.0   986.78202
                                         20  2 18   675.14078 84.1   986.78146
 18  0 18   766.04099 86.6   986.83908   19  2 18   720.57623 84.7   986.83863
 18  0 18   766.07467 89.4   986.87276   19  2 18   720.61102 57.7   986.87342
                                         20  2 18   675.23127 59.5   986.87195
 18  0 18   766.52494 77.0   987.32303   19  2 18   721.06111 83.6   987.32351
                                         20  2 18   675.68241 89.3   987.32309
 18  0 18   766.63032 89.1   987.42841   19  2 18   721.16656 87.1   987.42896
 18  0 18   766.74598 83.8   987.54407   19  2 18   721.28222 73.8   987.54462
 18  0 18   766.84662 87.3   987.64471   19  2 18   721.38133 86.3   987.64373
 18  0 18   766.86265 88.3   987.66074   20  2 18   676.01913 78.2   987.65981
 18  0 18   767.07651 77.5   987.87460   19  2 18   721.61123 82.9   987.87363
 18  0 18   767.45246 89.9   988.25055   19  2 18   721.98760  9.7   988.25000
 18  0 18   767.62871 89.4   988.42680   19  2 18   722.16530 80.8   988.42770
 18  0 18   767.92847 59.1   988.72656   19  2 18   722.46494 87.1   988.72734
 18  0 18   768.02774 81.3   988.82583   19  2 18   722.56307 80.8   988.82547
 18  0 18   768.16901 65.5   988.96710   19  2 18   722.70382 74.6   988.96622
 18  0 18   769.42806 89.8   990.22615   20  2 18   678.58551 88.8   990.22619
 18  0 18   769.72954 87.3   990.52763   20  2 18   678.88623 90.0   990.52691
 18  0 18   769.76479 49.0   990.56288   20  2 18   678.92218 82.7   990.56286
 18  0 18   770.00128 83.9   990.79937   19  2 18   724.53753 21.7   990.79993
 18  0 18   770.04550 85.8   990.84359   19  2 18   724.58026 86.0   990.84266
 18  0 18   770.22549 44.9   991.02358   19  2 18   724.76143 16.5   991.02383
 18  0 18   770.24994 18.1   991.04803   20  2 18   679.40727 82.1   991.04795
 18  0 18   770.31730 68.2   991.11539   19  2 18   724.85327 85.8   991.11567
 18  0 18   770.40086 87.4   991.19895   19  2 18   724.93624 89.2   991.19864
 18  0 18   770.63064 86.9   991.42873   19  2 18   725.16598 31.7   991.42838
                                         20  2 18   679.78876 85.0   991.42944
 18  0 18   771.00383 13.9   991.80192   19  2 18   725.54030 33.9   991.80270
 18  0 18   771.41760 89.7   992.21569   19  2 18   725.95235 85.5   992.21475
 18  0 18   771.89390 76.8   992.69199   19  2 18   726.43013 87.0   992.69253
 18  0 18   772.26943  5.9   993.06752   19  2 18   726.80455 78.0   993.06695
 18  0 18   772.28006 74.4   993.07815   19  2 18   726.81548 31.9   993.07788
 18  0 18   772.41016 86.3   993.20825   19  2 18   726.94680 65.8   993.20920
 18  0 18   772.62053 83.5   993.41862   19  2 18   727.15718 81.7   993.41958
 18  0 18   773.16677 84.2   993.96486   19  2 18   727.70270 85.9   993.96510
 18  0 18   773.22252 81.6   994.02061   19  2 18   727.75797 83.2   994.02037
 19  2 18   718.09100 85.3   984.35340   20  2 18   672.71292 80.5   984.35360
 19  2 18   719.05409 65.4   985.31649   20  2 18   673.67616 53.0   985.31684
 19  2 18   719.12625 86.8   985.38865   20  2 18   673.74894 87.4   985.38962
 19  2 18   719.30101 81.2   985.56341   20  2 18   673.92220 86.2   985.56288
 19  2 18   719.34307 53.8   985.60547   20  2 18   673.96390 89.8   985.60458
 19  2 18   719.34831 83.9   985.61071   20  2 18   673.96951 44.1   985.61019
 19  2 18   719.47302 79.5   985.73542   20  2 18   674.09483 88.6   985.73551
 19  2 18   719.48719 78.6   985.74959   20  2 18   674.10935 89.4   985.75003
 19  2 18   719.56206 80.6   985.82446   20  2 18   674.18463 86.6   985.82531
 19  2 18   720.51962 85.0   986.78202   20  2 18   675.14078 84.1   986.78146
 19  2 18   721.06111 83.6   987.32351   20  2 18   675.68241 89.3   987.32309
 19  2 18   721.08988 85.7   987.35228   20  2 18   675.71089 85.5   987.35157
 19  2 18   721.61612 89.6   987.87852   20  2 18   676.23870 83.3   987.87938
 19  2 18   721.68857 87.9   987.95097   20  2 18   676.30937 46.9   987.95005
 19  2 18   721.98189 86.4   988.24429   20  2 18   676.60325 30.0   988.24393
 19  2 18   723.02671 32.8   989.28911   20  2 18   677.64878 86.3   989.28946
 19  2 18   723.08552 60.8   989.34792   20  2 18   677.70816 87.8   989.34884
 19  2 18   723.11067 86.2   989.37307   20  2 18   677.73252 51.0   989.37320
 19  2 18   723.13049 71.4   989.39289   20  2 18   677.75166 85.9   989.39234
 19  2 18   724.66968 72.0   990.93208   20  2 18   679.29096 89.7   990.93164
 19  2 18   724.67515 87.4   990.93755   20  2 18   679.29644 63.5   990.93712
 19  2 18   725.64235 77.7   991.90475   20  2 18   680.26340 89.4   991.90408
 19  2 18   725.73040 60.8   991.99280   20  2 18   680.35223 79.8   991.99291
 19  2 18   725.91221 80.4   992.17461   20  2 18   680.53429 68.0   992.17497
 19  2 18   726.66063 83.1   992.92303   20  2 18   681.28335 73.6   992.92403
 19  2 18   726.95173 87.2   993.21413   20  2 18   681.57260 86.3   993.21328
 19  2 18   727.41363 61.9   993.67603   20  2 18   682.03545 89.5   993.67613
 19  2 18   727.46494 28.8   993.72734   20  2 18   682.08725 60.7   993.72793
 19  2 18   727.52135 89.1   993.78375   20  2 18   682.14226 86.0   993.78294

 Searching  20  1 19 near   1015.61118
 No   1:  19  0 19      244.74407  reg   765.867 -   775.867
 No   2:  20  2 19      292.66357  reg   717.948 -   727.948
 No   3:  21  2 19      340.74924  reg   669.862 -   679.862
 19  0 19   766.07467 89.4  1010.81874   20  2 19   718.15468 83.3  1010.81825
 19  0 19   766.14285 34.9  1010.88692   20  2 19   718.22299 84.9  1010.88656
 19  0 19   766.52494 77.0  1011.26901   20  2 19   718.60458 80.9  1011.26815
 19  0 19   766.97944 60.7  1011.72351   21  2 19   670.97452 87.3  1011.72376
 19  0 19   767.27808 79.9  1012.02215   20  2 19   719.35862  5.0  1012.02219
 19  0 19   767.83150 82.0  1012.57557   20  2 19   719.91250 65.4  1012.57607
 19  0 19   768.04208 83.1  1012.78615   20  2 19   720.12317  0.8  1012.78674
 19  0 19   768.17873 68.1  1012.92280   20  2 19   720.25850 70.8  1012.92207
 19  0 19   768.97584 75.2  1013.71991   21  2 19   672.97151 10.4  1013.72075
 19  0 19   769.02071 24.2  1013.76478   21  2 19   673.01564 63.8  1013.76488
 19  0 19   769.07704 74.2  1013.82111   20  2 19   721.15706 81.7  1013.82063
 19  0 19   769.35695 85.7  1014.10102   20  2 19   721.43756 26.1  1014.10113
 19  0 19   769.48144 75.7  1014.22551   20  2 19   721.56202 87.8  1014.22559
 19  0 19   769.72340 39.9  1014.46747   21  2 19   673.71779 82.2  1014.46703
 19  0 19   769.73515  1.5  1014.47922   20  2 19   721.81659 58.3  1014.48016
 19  0 19   769.92683 81.8  1014.67090   21  2 19   673.92220 86.2  1014.67144
 19  0 19   770.16132 77.8  1014.90539   20  2 19   722.24226 78.4  1014.90583
 19  0 19   770.24497 89.3  1014.98904   20  2 19   722.32607 83.1  1014.98964
 19  0 19   770.75166 89.3  1015.49573   20  2 19   722.83283 79.7  1015.49640
                                         21  2 19   674.74693 81.2  1015.49617
 19  0 19   770.79553 83.9  1015.53960   20  2 19   722.87629 74.1  1015.53986
 19  0 19   771.00383 13.9  1015.74790   21  2 19   674.99910 84.2  1015.74834
 19  0 19   771.30352 66.0  1016.04759   20  2 19   723.38331 64.1  1016.04688
 19  0 19   771.45216 83.8  1016.19623   21  2 19   675.44604 89.1  1016.19528
 19  0 19   772.42854 71.7  1017.17261   20  2 19   724.50895 76.5  1017.17252
 19  0 19   773.22252 81.6  1017.96659   21  2 19   677.21746 83.0  1017.96670
 19  0 19   773.28992 76.8  1018.03399   20  2 19   725.36979 89.7  1018.03336
 19  0 19   773.36102 83.5  1018.10509   21  2 19   677.35609 55.5  1018.10533
 19  0 19   773.54239 86.8  1018.28646   20  2 19   725.62325 28.7  1018.28682
 19  0 19   773.55180 87.3  1018.29587   20  2 19   725.63280 69.5  1018.29637
 19  0 19   773.60411 87.6  1018.34818   21  2 19   677.59981 86.3  1018.34905
 19  0 19   774.14547 86.2  1018.88954   20  2 19   726.22587 85.7  1018.88945
 19  0 19   774.18023 55.0  1018.92430   20  2 19   726.25982 54.3  1018.92339
 19  0 19   774.60939 81.8  1019.35346   20  2 19   726.68895 83.7  1019.35252
 19  0 19   775.22350 85.2  1019.96757   20  2 19   727.30462 76.1  1019.96819
 20  2 19   718.56932 81.8  1011.23289   21  2 19   670.48380 89.2  1011.23304
 20  2 19   719.05409 65.4  1011.71766   21  2 19   670.96850 34.3  1011.71774
 20  2 19   719.12625 86.8  1011.78982   21  2 19   671.04038 86.9  1011.78962
 20  2 19   719.17997 89.4  1011.84354   21  2 19   671.09517 82.9  1011.84441
 20  2 19   719.30101 81.2  1011.96458   21  2 19   671.21457 82.7  1011.96381
 20  2 19   719.33790 18.7  1012.00147   21  2 19   671.25184 89.2  1012.00108
 20  2 19   719.34307 53.8  1012.00664   21  2 19   671.25664 76.2  1012.00588
 20  2 19   719.38443 88.8  1012.04800   21  2 19   671.29975 79.4  1012.04899
 20  2 19   719.78068 89.3  1012.44425   21  2 19   671.69558 89.0  1012.44482
 20  2 19   719.99891 66.8  1012.66248   21  2 19   671.91366 86.9  1012.66290
 20  2 19   720.55777 74.4  1013.22134   21  2 19   672.47238 89.3  1013.22162
 20  2 19   720.70516 87.9  1013.36873   21  2 19   672.62019 77.7  1013.36943
 20  2 19   721.75527 86.9  1014.41884   21  2 19   673.67049 85.2  1014.41973
 20  2 19   721.85001 85.5  1014.51358   21  2 19   673.76342 86.4  1014.51266
 20  2 19   722.52727 85.1  1015.19084   21  2 19   674.44101 86.0  1015.19025
 20  2 19   722.83283 79.7  1015.49640   21  2 19   674.74693 81.2  1015.49617
 20  2 19   723.08552 60.8  1015.74909   21  2 19   674.99910 84.2  1015.74834
 20  2 19   723.28817 76.5  1015.95174   21  2 19   675.20245 87.8  1015.95169
 20  2 19   723.70610 76.8  1016.36967   21  2 19   675.61995 90.0  1016.36919
 20  2 19   723.76860 72.2  1016.43217   21  2 19   675.68241 89.3  1016.43165
 20  2 19   723.79665 61.9  1016.46022   21  2 19   675.71089 85.5  1016.46013
 20  2 19   724.15294 85.1  1016.81651   21  2 19   676.06649 79.1  1016.81573
 20  2 19   724.48392 87.5  1017.14749   21  2 19   676.39736 82.6  1017.14660
 20  2 19   724.53098 24.7  1017.19455   21  2 19   676.44561 87.6  1017.19485
 20  2 19   724.58507 84.8  1017.24864   21  2 19   676.49918 78.1  1017.24842
 20  2 19   724.66968 72.0  1017.33325   21  2 19   676.58438 52.8  1017.33362
 20  2 19   725.10943 85.8  1017.77300   21  2 19   677.02309 83.8  1017.77233
 20  2 19   726.02993 66.3  1018.69350   21  2 19   677.94406 64.7  1018.69330
 20  2 19   726.65462 55.0  1019.31819   21  2 19   678.56842 89.9  1019.31766
 20  2 19   726.78800 79.5  1019.45157   21  2 19   678.70250 43.7  1019.45174
 20  2 19   726.79442 73.5  1019.45799   21  2 19   678.70958 87.6  1019.45882
 20  2 19   726.96220 83.2  1019.62577   21  2 19   678.87565 71.9  1019.62489
 20  2 19   726.97214 75.3  1019.63571   21  2 19   678.88623 90.0  1019.63547
 20  2 19   727.38134 86.1  1020.04491   21  2 19   679.29644 63.5  1020.04568
 20  2 19   727.90759 88.4  1020.57116   21  2 19   679.82184 88.1  1020.57108
 20  2 19   727.94368 90.0  1020.60725   21  2 19   679.85887 89.1  1020.60811
