Range    : 0.500
Accuracy : 0.001
Control file  : C2HD3gr   
Spectrum file : expfile_st


 Searching   2  1  1 near    767.10191
  1  0  1   765.23663 81.2   766.63658    2  2  1   753.85880 83.6   766.63685
  1  0  1   765.46973 90.1   766.86968    2  2  1   754.09093 83.1   766.86898
  1  0  1   765.54248 59.4   766.94243    2  2  1   754.16469 89.7   766.94274
  1  0  1   765.79337 81.7   767.19332    2  2  1   754.41463  0.0   767.19268
  1  0  1   765.85958 77.4   767.25953    2  2  1   754.48248  7.7   767.26053
  1  0  1   766.15342  0.0   767.55337    2  2  1   754.77570 47.5   767.55375

 Searching   3  1  2 near    771.55245
  2  0  2   766.87371 95.0   771.06327    3  2  2   754.08469 48.6   771.06243
  2  0  2   766.91365 50.5   771.10321    3  2  2   754.12488 93.9   771.10262
  2  0  2   767.00920 92.6   771.19876    3  2  2   754.22070 84.3   771.19844
  2  0  2   767.05780  2.4   771.24736    3  2  2   754.26891 90.4   771.24665
  2  0  2   767.08200 86.4   771.27156    3  2  2   754.29341 78.3   771.27115
  2  0  2   767.12573 82.3   771.31529    3  2  2   754.33761  0.0   771.31535
  2  0  2   767.13128 70.5   771.32084    3  2  2   754.34290 82.3   771.32064
  2  0  2   767.21137 75.8   771.40093    3  2  2   754.42263 68.0   771.40037
  2  0  2   767.24941 87.0   771.43897    3  2  2   754.46195 83.8   771.43969
  2  0  2   767.29766 69.8   771.48722    3  2  2   754.50871 21.6   771.48645
  2  0  2   767.30346 30.3   771.49302    3  2  2   754.51555 54.6   771.49329
  2  0  2   767.43638  0.0   771.62594    3  2  2   754.64863 85.4   771.62637
  2  0  2   767.56418  4.7   771.75374    3  2  2   754.77570 47.5   771.75344
  2  0  2   767.61913 98.6   771.80869    3  2  2   754.83095 46.4   771.80869
  2  0  2   767.62846 33.7   771.81802    3  2  2   754.84080 93.8   771.81854
  2  0  2   767.67624 80.4   771.86580    3  2  2   754.88867 53.8   771.86641
  2  0  2   767.76109 78.8   771.95065    3  2  2   754.97259 65.9   771.95033

 Searching   4  1  3 near    777.47345
  3  0  3   768.88850 77.7   777.23694    4  2  3   754.66689 40.2   777.23613
  3  0  3   768.90001 44.0   777.24845    4  2  3   754.67846 93.5   777.24770
  3  0  3   768.90726 57.0   777.25570    4  2  3   754.68701 74.5   777.25625
  3  0  3   768.93437 82.5   777.28281    4  2  3   754.71326 38.3   777.28250
  3  0  3   768.97570  4.2   777.32414    4  2  3   754.75440 56.6   777.32364
  3  0  3   768.98569 87.9   777.33413    4  2  3   754.76560 85.7   777.33484
  3  0  3   768.99140 80.1   777.33984    4  2  3   754.77094 32.0   777.34018
  3  0  3   769.05219 11.8   777.40063    4  2  3   754.83095 46.4   777.40019
  3  0  3   769.07100 75.7   777.41944    4  2  3   754.85059 75.3   777.41983
  3  0  3   769.09841 79.1   777.44685    4  2  3   754.87824 51.7   777.44748
  3  0  3   769.10332 88.4   777.45176    4  2  3   754.88338 84.1   777.45262
  3  0  3   769.11363 22.4   777.46207    4  2  3   754.89325  7.6   777.46249
  3  0  3   769.23601 88.9   777.58445    4  2  3   755.01575 67.0   777.58499
  3  0  3   769.27871  0.2   777.62715    4  2  3   755.05767 57.6   777.62691
  3  0  3   769.29448 19.3   777.64292    4  2  3   755.07309 83.2   777.64233
  3  0  3   769.33595 72.4   777.68439    4  2  3   755.11523 36.9   777.68447
  3  0  3   769.42380 86.2   777.77224    4  2  3   755.20269 56.8   777.77193
  3  0  3   769.51385 96.3   777.86229    4  2  3   755.29346 31.6   777.86270
  3  0  3   769.51963 68.0   777.86807    4  2  3   755.29965 62.8   777.86889

 Searching   5  1  4 near    784.85254
  4  0  4   770.61484 85.3   784.46220    5  2  4   754.91660 51.0   784.46222
  4  0  4   770.63777  0.0   784.48513    5  2  4   754.93861 82.2   784.48423
  4  0  4   770.74683 84.7   784.59419    5  2  4   755.04899 47.5   784.59461
  4  0  4   770.79628 20.5   784.64364    5  2  4   755.09852 10.4   784.64414
  4  0  4   770.82026 95.8   784.66762    5  2  4   755.12132 80.0   784.66694
  4  0  4   771.01697 55.2   784.86433    5  2  4   755.31914 84.0   784.86476
  4  0  4   771.39348 91.6   785.24084    5  2  4   755.69597 55.4   785.24159
  4  0  4   771.50627 85.8   785.35363    5  2  4   755.80786 87.4   785.35348

 Searching   6  1  5 near    793.67282
  5  0  5   772.67319  0.0   793.32453    6  2  5   755.42680 82.7   793.32512
  5  0  5   772.76480  0.0   793.41614    6  2  5   755.51696 43.2   793.41528
  5  0  5   772.80741 95.1   793.45875    6  2  5   755.55990 93.1   793.45822
  5  0  5   772.88133 87.4   793.53267    6  2  5   755.63514 72.1   793.53346
  5  0  5   772.88626 86.2   793.53760    6  2  5   755.63990 94.4   793.53822
  5  0  5   772.91542 59.1   793.56676    6  2  5   755.66854 83.9   793.56686
  5  0  5   772.95669 97.4   793.60803    6  2  5   755.71017  0.0   793.60849
  5  0  5   773.00734 57.8   793.65868    6  2  5   755.75949 41.9   793.65781
  5  0  5   773.12383 57.7   793.77517    6  2  5   755.87608 83.6   793.77440
  5  0  5   773.15004 88.4   793.80138    6  2  5   755.90323 78.6   793.80155
  5  0  5   773.18931 86.8   793.84065    6  2  5   755.94175 75.8   793.84007
  5  0  5   773.19427 92.3   793.84561    6  2  5   755.94709 94.7   793.84541
  5  0  5   773.24254 81.4   793.89388    6  2  5   755.99619 83.2   793.89451
  5  0  5   773.34350 93.6   793.99484    6  2  5   756.09646 76.9   793.99478
  5  0  5   773.35622 89.8   794.00756    6  2  5   756.10924  0.0   794.00756
  5  0  5   773.40707 18.7   794.05841    6  2  5   756.15949 67.7   794.05781
  5  0  5   773.51531 91.8   794.16665    6  2  5   756.26930 69.4   794.16762

 Searching   7  1  6 near    803.91200
  6  0  6   774.75471 86.7   803.47987    7  2  6   755.86198  0.0   803.47920
  6  0  6   774.95538 81.7   803.68054    7  2  6   756.06384 53.2   803.68106
  6  0  6   775.03610 83.3   803.76126    7  2  6   756.14414  2.1   803.76136
  6  0  6   775.09529 82.8   803.82045    7  2  6   756.20233 85.5   803.81955
  6  0  6   775.24365 92.3   803.96881    7  2  6   756.35106 58.2   803.96828
  6  0  6   775.27955 74.3   804.00471    7  2  6   756.38654 32.9   804.00376
  6  0  6   775.37366 46.6   804.09882    7  2  6   756.48153 67.0   804.09875
  6  0  6   775.40151 94.5   804.12667    7  2  6   756.51032 90.9   804.12754
  6  0  6   775.61987 60.4   804.34503    7  2  6   756.72795 96.8   804.34517

 Searching   8  1  7 near    815.54179
  7  0  7   777.02817 90.0   815.06772    8  2  7   756.37645 77.0   815.06726
  7  0  7   777.04452 86.2   815.08407    8  2  7   756.39295  0.0   815.08376
  7  0  7   777.35455 86.9   815.39410    8  2  7   756.70326 81.7   815.39407
  7  0  7   777.41137 49.2   815.45092    8  2  7   756.76079 93.2   815.45160
  7  0  7   777.41839 60.3   815.45794    8  2  7   756.76655 67.3   815.45736
  7  0  7   777.48481 90.2   815.52436    8  2  7   756.83352 78.0   815.52433
  7  0  7   777.50560 87.3   815.54515    8  2  7   756.85469 65.2   815.54550
  7  0  7   777.52079 78.7   815.56034    8  2  7   756.86995 91.3   815.56076
  7  0  7   777.56136 84.9   815.60091    8  2  7   756.90981 58.5   815.60062
  7  0  7   777.62281 86.3   815.66236    8  2  7   756.97139 89.8   815.66220
  7  0  7   777.74084 86.7   815.78039    8  2  7   757.08980 93.8   815.78061
  7  0  7   777.75844 94.4   815.79799    8  2  7   757.10720 47.6   815.79801
  7  0  7   777.80199 22.7   815.84154    8  2  7   757.15034 92.2   815.84115
  7  0  7   777.88090 92.1   815.92045    8  2  7   757.23014  0.0   815.92095
  7  0  7   777.88953 86.1   815.92908    8  2  7   757.23875 84.1   815.92956
  7  0  7   777.89504 96.9   815.93459    8  2  7   757.24288 93.1   815.93369
  7  0  7   777.92956 81.1   815.96911    8  2  7   757.27775  0.0   815.96856
  7  0  7   777.95451 57.6   815.99406    8  2  7   757.30242 71.3   815.99323
  7  0  7   777.97364 96.8   816.01319    8  2  7   757.32335 80.2   816.01416
  7  0  7   777.97863 98.0   816.01818    8  2  7   757.32769 88.9   816.01850
  7  0  7   777.98454 82.6   816.02409    8  2  7   757.33278 84.7   816.02359

 Searching   9  1  8 near    828.52799
  8  0  8   779.48058 95.8   828.05586    9  2  8   756.94870 84.6   828.05513
  8  0  8   779.58935  0.0   828.16463    9  2  8   757.05903 32.9   828.16546
  8  0  8   779.60359 90.0   828.17887    9  2  8   757.07290 78.9   828.17933
  8  0  8   779.68100  0.0   828.25628    9  2  8   757.15034 92.2   828.25677
  8  0  8   779.71266 83.9   828.28794    9  2  8   757.18114  0.0   828.28757
  8  0  8   779.75487 48.6   828.33015    9  2  8   757.22410  0.0   828.33053
  8  0  8   779.77891 44.5   828.35419    9  2  8   757.24807 87.3   828.35450
  8  0  8   779.78393 92.6   828.35921    9  2  8   757.25315 50.3   828.35958
  8  0  8   779.91124 29.9   828.48652    9  2  8   757.38046 64.5   828.48689
  8  0  8   779.95660 27.5   828.53188    9  2  8   757.42517 77.8   828.53160
  8  0  8   779.96267 88.2   828.53795    9  2  8   757.43185 11.8   828.53828
  8  0  8   780.13406 84.9   828.70934    9  2  8   757.60373 48.8   828.71016
  8  0  8   780.14363 97.5   828.71891    9  2  8   757.61233 28.7   828.71876
  8  0  8   780.14890 83.8   828.72418    9  2  8   757.61835 81.5   828.72478
  8  0  8   780.15417 73.7   828.72945    9  2  8   757.62319 92.3   828.72962
  8  0  8   780.19059 59.6   828.76587    9  2  8   757.65949 64.0   828.76592
  8  0  8   780.30415 76.2   828.87943    9  2  8   757.77377 91.9   828.88020
  8  0  8   780.33404 93.7   828.90932    9  2  8   757.80273 67.6   828.90916

 Searching  10  1  9 near    842.83194
  9  0  9   782.12407 90.1   842.44723   10  2  9   757.59678 58.8   842.44742
  9  0  9   782.13892 82.3   842.46208   10  2  9   757.61233 28.7   842.46297
  9  0  9   782.39543 99.0   842.71859   10  2  9   757.86824 81.9   842.71888
  9  0  9   782.44289 50.4   842.76605   10  2  9   757.91528 80.0   842.76592
  9  0  9   782.48315 70.0   842.80631   10  2  9   757.95661 96.2   842.80725
  9  0  9   782.58596 90.2   842.90912   10  2  9   758.05868 91.3   842.90932
  9  0  9   782.60475 90.3   842.92791   10  2  9   758.07645 94.6   842.92709
  9  0  9   782.79098 92.6   843.11414   10  2  9   758.26270 90.3   843.11334
  9  0  9   782.88800 88.0   843.21116   10  2  9   758.36022 82.6   843.21086
  9  0  9   782.94396 93.6   843.26712   10  2  9   758.41571 90.5   843.26635

 Searching  11  1 10 near    858.41389
 10  0 10   784.87251 92.0   858.15374   11  2 10   758.24329 79.9   858.15287
 10  0 10   785.20090  0.0   858.48213   11  2 10   758.57202 77.7   858.48160
 10  0 10   785.22144 94.9   858.50267   11  2 10   758.59209  0.0   858.50167
 10  0 10   785.29361 95.7   858.57484   11  2 10   758.66538 76.4   858.57496
 10  0 10   785.34086 81.1   858.62209   11  2 10   758.71191 73.1   858.62149
 10  0 10   785.39407 89.5   858.67530   11  2 10   758.76489  0.6   858.67447
 10  0 10   785.55622 71.2   858.83745   11  2 10   758.92869 86.2   858.83827

 Searching  12  1 11 near    875.23798
 11  0 11   787.28377 43.9   874.73509   12  2 11   758.46508 75.0   874.73456
 11  0 11   787.45647 87.2   874.90779   12  2 11   758.63743  0.0   874.90691
 11  0 11   787.46579 97.1   874.91711   12  2 11   758.64712 94.2   874.91660
 11  0 11   787.64871  0.0   875.10003   12  2 11   758.83052 51.2   875.10000
 11  0 11   787.81569 94.8   875.26701   12  2 11   758.99817 38.1   875.26765
 11  0 11   787.85079 97.6   875.30211   12  2 11   759.03205 27.7   875.30153
 11  0 11   787.92523 95.3   875.37655   12  2 11   759.10744  1.7   875.37692
 11  0 11   788.16532 97.1   875.61664   12  2 11   759.34720 66.4   875.61668
 11  0 11   788.22601 92.9   875.67733   12  2 11   759.40860 73.7   875.67808

 Searching  13  1 12 near    893.27687
 12  0 12   789.96073 69.9   892.79732   13  2 12   758.88038 76.0   892.79753
 12  0 12   789.96639 81.0   892.80298   13  2 12   758.88601 95.3   892.80316
 12  0 12   790.00185 70.6   892.83844   13  2 12   758.92217 62.0   892.83932
 12  0 12   790.22045 40.2   893.05704   13  2 12   759.13944 20.4   893.05659
 12  0 12   790.23047 83.0   893.06706   13  2 12   759.14940  0.0   893.06655
 12  0 12   790.30052 92.3   893.13711   13  2 12   759.21997 79.2   893.13712
 12  0 12   790.49616 92.7   893.33275   13  2 12   759.41533 77.5   893.33248
 12  0 12   790.52171 84.8   893.35830   13  2 12   759.44090 44.3   893.35805
 12  0 12   790.56432 81.4   893.40091   13  2 12   759.48406  4.3   893.40121
 12  0 12   790.73651 97.0   893.57310   13  2 12   759.65665 62.7   893.57380
 12  0 12   790.77048 90.9   893.60707   13  2 12   759.69028 74.4   893.60743
 12  0 12   790.77908 78.8   893.61567   13  2 12   759.69945 53.0   893.61660
 12  0 12   790.84298 92.7   893.67957   13  2 12   759.76316 55.8   893.68031
 12  0 12   790.85803 36.9   893.69462   13  2 12   759.77727 78.8   893.69442
 12  0 12   790.87745 90.9   893.71404   13  2 12   759.79680 83.9   893.71395

 Searching  14  1 13 near    912.51414
 13  0 13   792.59032 98.2   912.03044   14  2 13   759.18959  3.7   912.02994
 13  0 13   792.65107 93.5   912.09119   14  2 13   759.25128 69.8   912.09163
 13  0 13   792.68111 50.3   912.12123   14  2 13   759.28079 70.1   912.12114
 13  0 13   792.94127 72.2   912.38139   14  2 13   759.54142 59.5   912.38177
 13  0 13   793.17444 92.6   912.61456   14  2 13   759.77402 77.0   912.61437
 13  0 13   793.26324 47.4   912.70336   14  2 13   759.86314 81.0   912.70349
 13  0 13   793.26923 58.0   912.70935   14  2 13   759.86901 88.7   912.70936
 13  0 13   793.34770 61.4   912.78782   14  2 13   759.94679 74.4   912.78714
 13  0 13   793.56630 94.2   913.00642   14  2 13   760.16557 72.0   913.00592

 Searching  15  1 14 near    932.94352
 14  0 14   795.19336 95.6   932.45777   15  2 14   759.43012 81.8   932.45833
 14  0 14   795.31631 97.1   932.58072   15  2 14   759.55228 36.2   932.58049
 14  0 14   795.32616 83.0   932.59057   15  2 14   759.56189  0.0   932.59010
 14  0 14   795.35970 93.7   932.62411   15  2 14   759.59576 90.8   932.62397
 14  0 14   795.50833 98.6   932.77274   15  2 14   759.74489 86.1   932.77310
 14  0 14   795.65785 34.6   932.92226   15  2 14   759.89390 91.3   932.92211
 14  0 14   795.68136 97.4   932.94577   15  2 14   759.91761 89.7   932.94582
 14  0 14   795.87597 80.2   933.14038   15  2 14   760.11209 80.0   933.14030
 14  0 14   795.92497 94.7   933.18938   15  2 14   760.16087 85.1   933.18908
 14  0 14   796.09964 94.3   933.36405   15  2 14   760.33516 93.3   933.36337
 14  0 14   796.11410 91.6   933.37851   15  2 14   760.35038 94.2   933.37859
 14  0 14   796.18053 75.3   933.44494   15  2 14   760.41767 57.5   933.44588

 Searching  16  1 15 near    954.56575
 15  0 15   797.80209 52.9   954.11339   16  2 15   759.64164 88.2   954.11300
 15  0 15   797.81731 95.0   954.12861   16  2 15   759.65665 62.7   954.12801
 15  0 15   797.84962 97.9   954.16092   16  2 15   759.69028 74.4   954.16164
 15  0 15   797.85913 97.9   954.17043   16  2 15   759.69945 53.0   954.17081
 15  0 15   797.97540 55.9   954.28670   16  2 15   759.81606 66.8   954.28742
 15  0 15   798.00481 97.9   954.31611   16  2 15   759.84540  0.0   954.31676
 15  0 15   798.01553 94.7   954.32683   16  2 15   759.85621 37.4   954.32757
 15  0 15   798.05359 96.6   954.36489   16  2 15   759.89390 91.3   954.36526
 15  0 15   798.06198 63.9   954.37328   16  2 15   759.90222 77.5   954.37358
 15  0 15   798.06844 45.0   954.37974   16  2 15   759.90777 66.0   954.37913
 15  0 15   798.12230 57.7   954.43360   16  2 15   759.96209 71.4   954.43345
 15  0 15   798.15208 36.0   954.46338   16  2 15   759.99144  0.0   954.46280
 15  0 15   798.16722 95.6   954.47852   16  2 15   760.00717 77.2   954.47853
 15  0 15   798.34628 96.3   954.65758   16  2 15   760.18711  0.0   954.65847
 15  0 15   798.40368 94.6   954.71498   16  2 15   760.24340 62.7   954.71476
 15  0 15   798.42668 93.2   954.73798   16  2 15   760.26747 51.2   954.73883
 15  0 15   798.49569 90.1   954.80699   16  2 15   760.33516 93.3   954.80652
 15  0 15   798.61684 30.1   954.92814   16  2 15   760.45754 44.7   954.92890
 15  0 15   798.72549 86.2   955.03679   16  2 15   760.56526 93.8   955.03662
 15  0 15   798.73604 91.3   955.04734   16  2 15   760.57511 83.4   955.04647
 15  0 15   798.75882  0.0   955.07012   16  2 15   760.59830  0.0   955.06966

 Searching  17  1 16 near    977.38532
 16  0 16   800.42458 96.3   977.00665   17  2 16   759.84540  0.0   977.00743
 16  0 16   800.54793 82.0   977.13000   17  2 16   759.96793 38.4   977.12996
 16  0 16   800.57728 35.8   977.15935   17  2 16   759.99751 57.4   977.15954
 16  0 16   800.58237 94.4   977.16444   17  2 16   760.00259 93.5   977.16462
 16  0 16   800.58721 94.5   977.16928   17  2 16   760.00717 77.2   977.16920
 16  0 16   800.68858 63.0   977.27065   17  2 16   760.10925 80.6   977.27128
 16  0 16   800.71230 91.1   977.29437   17  2 16   760.13215 87.4   977.29418
 16  0 16   800.72248 77.1   977.30455   17  2 16   760.14187 60.2   977.30390
 16  0 16   800.77840 86.2   977.36047   17  2 16   760.19798 85.0   977.36001
 16  0 16   800.80820 56.3   977.39027   17  2 16   760.22755 71.4   977.38958
 16  0 16   800.93041 95.4   977.51248   17  2 16   760.35038 94.2   977.51241
 16  0 16   800.99729 86.0   977.57936   17  2 16   760.41767 57.5   977.57970
 16  0 16   801.00716 86.4   977.58923   17  2 16   760.42760 90.5   977.58963
 16  0 16   801.17799 15.2   977.76006   17  2 16   760.59830  0.0   977.76033
 16  0 16   801.27795 99.3   977.86002   17  2 16   760.69779 21.4   977.85982

 Searching  18  1 17 near   1001.40787
 17  0 17   802.83297 92.1  1000.91048   18  2 17   759.81606 66.8  1000.91005
 17  0 17   802.85300 85.6  1000.93051   18  2 17   759.83611 80.1  1000.93010
 17  0 17   802.86801 99.2  1000.94552   18  2 17   759.85169  0.0  1000.94568
 17  0 17   802.87940 97.4  1000.95691   18  2 17   759.86314 81.0  1000.95713
 17  0 17   802.91837 93.6  1000.99588   18  2 17   759.90222 77.5  1000.99621
 17  0 17   802.92344 97.3  1001.00095   18  2 17   759.90777 66.0  1001.00176
 17  0 17   802.96395 73.8  1001.04146   18  2 17   759.94679 74.4  1001.04078
 17  0 17   802.98372 82.6  1001.06123   18  2 17   759.96793 38.4  1001.06192
 17  0 17   803.06840 68.2  1001.14591   18  2 17   760.05149 58.9  1001.14548
 17  0 17   803.46300 92.5  1001.54051   18  2 17   760.44667 47.1  1001.54066
 17  0 17   803.50829 73.9  1001.58580   18  2 17   760.49102 83.4  1001.58501
 17  0 17   803.53715 87.8  1001.61466   18  2 17   760.52108  3.0  1001.61507
 17  0 17   803.57212 93.6  1001.64963   18  2 17   760.55622 76.8  1001.65021
 17  0 17   803.58215 78.8  1001.65966   18  2 17   760.56526 93.8  1001.65925
 17  0 17   803.65404 94.7  1001.73155   18  2 17   760.63740 83.3  1001.73139
 17  0 17   803.69654  0.0  1001.77405   18  2 17   760.67998  0.0  1001.77397

 Searching  19  1 18 near   1026.63869
 18  0 18   805.34386 57.5  1026.14195   19  2 18   759.88007 84.6  1026.14247
 18  0 18   805.44420 88.5  1026.24229   19  2 18   759.98034  0.0  1026.24274
 18  0 18   805.45655 90.4  1026.25464   19  2 18   759.99144  0.0  1026.25384
 18  0 18   805.57566 62.7  1026.37375   19  2 18   760.11209 80.0  1026.37449
 18  0 18   805.67579 68.4  1026.47388   19  2 18   760.21176 71.6  1026.47416
 18  0 18   805.69114 97.6  1026.48923   19  2 18   760.22755 71.4  1026.48995
 18  0 18   805.73180 95.3  1026.52989   19  2 18   760.26747 51.2  1026.52987
 18  0 18   805.74652 95.2  1026.54461   19  2 18   760.28192 87.1  1026.54432
 18  0 18   805.80546 63.9  1026.60355   19  2 18   760.34162 71.4  1026.60402
 18  0 18   805.83760 95.1  1026.63569   19  2 18   760.37246 72.0  1026.63486
 18  0 18   806.17525 96.2  1026.97334   19  2 18   760.71163  0.0  1026.97403
 18  0 18   806.18235 97.0  1026.98044   19  2 18   760.71764 76.3  1026.98004
 18  0 18   806.19200 92.2  1026.99009   19  2 18   760.72731 87.0  1026.98971
 18  0 18   806.22201 98.2  1027.02010   19  2 18   760.75833 66.5  1027.02073
 18  0 18   806.27660 93.2  1027.07469   19  2 18   760.81237 88.0  1027.07477
 18  0 18   806.30996 98.1  1027.10805   19  2 18   760.84499 88.4  1027.10739
 18  0 18   806.31447 98.3  1027.11256   19  2 18   760.85058 66.6  1027.11298

 Searching  20  1 19 near   1053.08218
 19  0 19   807.85142 97.5  1052.59549   20  2 19   759.93242 34.1  1052.59599
 19  0 19   807.88079 78.3  1052.62486   20  2 19   759.96209 71.4  1052.62566
 19  0 19   807.91628 97.4  1052.66035   20  2 19   759.99751 57.4  1052.66108
 19  0 19   807.99462 94.3  1052.73869   20  2 19   760.07581  0.0  1052.73938
 19  0 19   808.02287 98.5  1052.76694   20  2 19   760.10420 48.7  1052.76777
 19  0 19   808.03695 92.4  1052.78102   20  2 19   760.11836  4.0  1052.78193
 19  0 19   808.06104 82.4  1052.80511   20  2 19   760.14187 60.2  1052.80544
 19  0 19   808.09642 74.9  1052.84049   20  2 19   760.17600 90.3  1052.83957
 19  0 19   808.11145 78.0  1052.85552   20  2 19   760.19161  6.4  1052.85518
 19  0 19   808.13124 78.7  1052.87531   20  2 19   760.21176 71.6  1052.87533
 19  0 19   808.55239 78.4  1053.29646   20  2 19   760.63200 15.1  1053.29557
 19  0 19   808.65822 95.8  1053.40229   20  2 19   760.73825  0.0  1053.40182
 19  0 19   808.75817 81.1  1053.50224   20  2 19   760.83854  0.0  1053.50211
 19  0 19   808.81089 76.7  1053.55496   20  2 19   760.89153 87.1  1053.55510
 19  0 19   808.81665 30.6  1053.56072   20  2 19   760.89745  0.0  1053.56102
 19  0 19   808.83160 92.4  1053.57567   20  2 19   760.91116 63.0  1053.57473
