Range    : 1.000
Accuracy : 0.001
Control file  : C2HD3gr   
Spectrum file : w         

 Searching   0  0  0 near    764.00000
 No   1:   1  1  0        3.63042  reg   759.370 -   761.370

 Searching   1  0  1 near    765.39996
 No   1:   1  1  1        3.45881  reg   760.941 -   762.941
 No   2:   2  1  1        6.60191  reg   757.798 -   759.798
  1  1  1   761.83335 87.4   765.29216    2  1  1   758.69036 73.3   765.29227
  1  1  1   762.48651 88.1   765.94532    2  1  1   759.34288 75.1   765.94479

 Searching   2  0  2 near    768.18956
 No   1:   2  1  2        6.08707  reg   761.102 -   763.102
 No   2:   3  1  2       11.05245  reg   756.137 -   758.137
  2  1  2   761.31074 82.3   767.39781    3  1  2   756.34480 88.8   767.39725
  2  1  2   761.67853 81.5   767.76560    3  1  2   756.71343 77.0   767.76588
  2  1  2   762.35468 86.1   768.44175    3  1  2   757.38985 81.1   768.44230

 Searching   3  0  3 near    772.34844
 No   1:   3  1  3       10.02318  reg   761.325 -   763.325
 No   2:   4  1  3       16.97345  reg   754.375 -   756.375
  3  1  3   762.65850 83.8   772.68168    4  1  3   755.70897 64.8   772.68242
  3  1  3   763.01466 88.7   773.03784    4  1  3   756.06370 89.3   773.03715
  3  1  3   763.02021 59.9   773.04339    4  1  3   756.06969 31.2   773.04314

 Searching   4  0  4 near    777.84736
 No   1:   4  1  4       15.26012  reg   761.587 -   763.587
 No   2:   5  1  4       24.35254  reg   752.495 -   754.495
  4  1  4   762.06232 88.7   777.32244    5  1  4   752.96935 39.9   777.32189

 Searching   5  0  5 near    784.65134
 No   1:   5  1  5       21.78938  reg   761.862 -   763.862
 No   2:   6  1  5       33.17281  reg   750.479 -   752.479
  5  1  5   762.12088 89.9   783.91026    6  1  5   750.73683 23.1   783.90964
  5  1  5   762.48651 88.1   784.27589    6  1  5   751.10326 85.4   784.27607
  5  1  5   762.90412 76.7   784.69350    6  1  5   751.52021 87.2   784.69302
  5  1  5   763.35007 89.0   785.13945    6  1  5   751.96595 89.8   785.13876
  5  1  5   763.74310 79.5   785.53248    6  1  5   752.36056 88.3   785.53337
  5  1  5   763.80328 69.1   785.59266    6  1  5   752.42067 84.8   785.59348
