Range    : 1.000
Accuracy : 0.001
Control file  : C2HD3gr   
Spectrum file : s         

 Searching   3  3  1 near    751.70521
 No   1:   2  2  1       12.77805  reg   737.927 -   739.927
 No   2:   3  2  1       17.02892  reg   733.676 -   735.676
 No   3:   4  4  1       48.31318  reg   702.392 -   704.392
  2  2  1   737.98125 83.7   750.75930    3  2  1   733.73117 73.6   750.76009
  2  2  1   737.98926 43.6   750.76731    3  2  1   733.73900 81.1   750.76792
  2  2  1   738.06961 88.3   750.84766    4  4  1   702.53365 65.8   750.84683
  2  2  1   738.07481 74.9   750.85286    4  4  1   702.53880 82.2   750.85198
  2  2  1   738.09355 59.5   750.87160    3  2  1   733.84240 53.8   750.87132
                                          4  4  1   702.55882 79.6   750.87200
  2  2  1   738.10323 50.5   750.88128    3  2  1   733.85259 53.1   750.88151
  2  2  1   738.12818 83.6   750.90623    3  2  1   733.87829 86.5   750.90721
  2  2  1   738.14306 88.2   750.92111    3  2  1   733.89158 82.8   750.92050
  2  2  1   738.23569 25.8   751.01374    3  2  1   733.98547 74.2   751.01439
  2  2  1   738.24086 82.1   751.01891    3  2  1   733.99053 42.8   751.01945
  2  2  1   738.25490 86.4   751.03295    4  4  1   702.71910 88.6   751.03228
  2  2  1   738.27485 57.1   751.05290    3  2  1   734.02400 30.4   751.05292
  2  2  1   738.28833 67.8   751.06638    4  4  1   702.75311 10.9   751.06629
  2  2  1   738.31832 31.1   751.09637    4  4  1   702.78406 86.3   751.09724
  2  2  1   738.34056 84.1   751.11861    3  2  1   734.09023 38.6   751.11915
  2  2  1   738.34896 85.6   751.12701    4  4  1   702.81371 75.8   751.12689
  2  2  1   738.36105 39.1   751.13910    4  4  1   702.82598 84.4   751.13916
  2  2  1   738.40427 43.5   751.18232    4  4  1   702.86914 43.5   751.18232
  2  2  1   738.41365 30.4   751.19170    4  4  1   702.87856 79.5   751.19174
  2  2  1   738.43944 67.5   751.21749    3  2  1   734.18827 68.2   751.21719
                                          4  4  1   702.90395 11.1   751.21713
  2  2  1   738.44525 85.6   751.22330    3  2  1   734.19386 79.1   751.22278
  2  2  1   738.48179 81.6   751.25984    4  4  1   702.94710 59.8   751.26028
  2  2  1   738.50176 58.9   751.27981    3  2  1   734.25077 40.9   751.27969
  2  2  1   738.53176 73.3   751.30981    4  4  1   702.99648 69.7   751.30966
  2  2  1   738.57697 77.5   751.35502    3  2  1   734.32517 87.1   751.35409
  2  2  1   738.59929 66.2   751.37734    3  2  1   734.34758 13.4   751.37650
  2  2  1   738.67402 80.0   751.45207    3  2  1   734.42239 52.3   751.45131
  2  2  1   738.69748 79.2   751.47553    4  4  1   703.16212 62.7   751.47530
  2  2  1   738.70248 79.6   751.48053    4  4  1   703.16747 88.9   751.48065
  2  2  1   738.71205 89.6   751.49010    3  2  1   734.46190 59.6   751.49082
  2  2  1   738.72155 62.6   751.49960    4  4  1   703.18671 76.4   751.49989
  2  2  1   738.77304 73.1   751.55109    3  2  1   734.52190 57.0   751.55082
  2  2  1   738.77874 80.3   751.55679    3  2  1   734.52766 85.5   751.55658
                                          4  4  1   703.24402 86.0   751.55720
  2  2  1   738.78853 79.7   751.56658    3  2  1   734.53712 85.8   751.56604
                                          4  4  1   703.25332 83.3   751.56650
  2  2  1   738.83598 76.5   751.61403    4  4  1   703.30062 70.5   751.61380
  2  2  1   738.87489 56.5   751.65294    4  4  1   703.33955 78.0   751.65273
  2  2  1   738.88014 88.0   751.65819    3  2  1   734.62846 73.9   751.65738
                                          4  4  1   703.34465 81.9   751.65783
  2  2  1   738.89013 87.7   751.66818    4  4  1   703.35514 84.8   751.66832
  2  2  1   738.90997 43.5   751.68802    3  2  1   734.65946 46.8   751.68838
  2  2  1   738.93839 86.6   751.71644    3  2  1   734.68834 72.3   751.71726
                                          4  4  1   703.40239 36.1   751.71557
  2  2  1   738.95320 78.6   751.73125    3  2  1   734.70138 54.6   751.73030
  2  2  1   738.96735 55.3   751.74540    4  4  1   703.43123 85.9   751.74441
  2  2  1   739.01342 78.9   751.79147    3  2  1   734.76302 72.3   751.79194
                                          4  4  1   703.47747 86.7   751.79065
  2  2  1   739.02377 40.7   751.80182    3  2  1   734.77381 88.9   751.80273
  2  2  1   739.05560 57.4   751.83365    3  2  1   734.80401 63.0   751.83293
  2  2  1   739.07321 87.0   751.85126    4  4  1   703.53842 20.8   751.85160
  2  2  1   739.07867 50.8   751.85672    4  4  1   703.54419 71.0   751.85737
  2  2  1   739.08857 53.9   751.86662    4  4  1   703.55284 89.2   751.86602
  2  2  1   739.09402 86.3   751.87207    3  2  1   734.84378 22.7   751.87270
  2  2  1   739.11019 89.3   751.88824    3  2  1   734.85886 34.7   751.88778
  2  2  1   739.11645 19.8   751.89450    4  4  1   703.58126 72.6   751.89444
  2  2  1   739.14894 70.8   751.92699    4  4  1   703.61400 86.6   751.92718
  2  2  1   739.15410 89.8   751.93215    4  4  1   703.61877 85.2   751.93195
  2  2  1   739.16996 21.3   751.94801    3  2  1   734.91940 88.4   751.94832
  2  2  1   739.17627 76.5   751.95432    3  2  1   734.92562 78.4   751.95454
  2  2  1   739.30208 51.1   752.08013    4  4  1   703.76781 54.0   752.08099
  2  2  1   739.31544 57.0   752.09349    4  4  1   703.78042 84.2   752.09360
  2  2  1   739.33122 70.0   752.10927    4  4  1   703.79534 87.9   752.10852
  2  2  1   739.33865 54.8   752.11670    3  2  1   735.08741 41.5   752.11633
  2  2  1   739.34876 88.8   752.12681    3  2  1   735.09758 78.9   752.12650
  2  2  1   739.36756 84.6   752.14561    3  2  1   735.11675 84.1   752.14567
  2  2  1   739.37285 53.6   752.15090    4  4  1   703.83852 66.7   752.15170
  2  2  1   739.39177 63.2   752.16982    3  2  1   735.14104 85.1   752.16996
  2  2  1   739.44616 79.3   752.22421    3  2  1   735.19629 31.2   752.22521
  2  2  1   739.51043 80.5   752.28848    4  4  1   703.97455 22.6   752.28773
  2  2  1   739.52792 30.9   752.30597    3  2  1   735.27738 24.5   752.30630
  2  2  1   739.56136 71.6   752.33941    3  2  1   735.31028 54.4   752.33920
  2  2  1   739.58606 75.1   752.36411    4  4  1   704.05150 80.5   752.36468
  2  2  1   739.58950 57.2   752.36755    3  2  1   735.33884 73.5   752.36776
  2  2  1   739.60966 62.6   752.38771    4  4  1   704.07370 31.0   752.38688
  2  2  1   739.64378 78.5   752.42183    4  4  1   704.10768 81.5   752.42086
  2  2  1   739.70571 64.7   752.48376    3  2  1   735.45460 86.1   752.48352
  2  2  1   739.76645 88.0   752.54450    3  2  1   735.51611 52.0   752.54503
  2  2  1   739.85092 13.2   752.62897    4  4  1   704.31602 25.7   752.62920
  3  2  1   733.67702 76.1   750.70594    4  4  1   702.39246 89.8   750.70564
  3  2  1   733.69531 49.0   750.72423    4  4  1   702.41174 75.1   750.72492
  3  2  1   733.82843 61.5   750.85735    4  4  1   702.54443 53.8   750.85761
  3  2  1   733.84240 53.8   750.87132    4  4  1   702.55882 79.6   750.87200
  3  2  1   734.11467 64.9   751.14359    4  4  1   702.83006 82.7   751.14324
  3  2  1   734.18827 68.2   751.21719    4  4  1   702.90395 11.1   751.21713
  3  2  1   734.22623 88.5   751.25515    4  4  1   702.94216 80.1   751.25534
  3  2  1   734.25708 75.1   751.28600    4  4  1   702.97219 84.9   751.28537
  3  2  1   734.39818 80.7   751.42710    4  4  1   703.11351 53.0   751.42669
  3  2  1   734.42239 52.3   751.45131    4  4  1   703.13757 82.6   751.45075
  3  2  1   734.43631 74.6   751.46523    4  4  1   703.15228 79.5   751.46546
  3  2  1   734.48586 44.0   751.51478    4  4  1   703.20138 79.7   751.51456
  3  2  1   734.49135 62.7   751.52027    4  4  1   703.20749 11.0   751.52067
  3  2  1   734.50843 61.0   751.53735    4  4  1   703.22389 46.0   751.53707
  3  2  1   734.52766 85.5   751.55658    4  4  1   703.24402 86.0   751.55720
  3  2  1   734.53712 85.8   751.56604    4  4  1   703.25332 83.3   751.56650
  3  2  1   734.55160 61.1   751.58052    4  4  1   703.26688 64.8   751.58006
  3  2  1   734.62846 73.9   751.65738    4  4  1   703.34465 81.9   751.65783
  3  2  1   734.68071 88.5   751.70963    4  4  1   703.39586 84.4   751.70904
  3  2  1   734.70138 54.6   751.73030    4  4  1   703.41661 27.2   751.72979
  3  2  1   734.83646 13.0   751.86538    4  4  1   703.55284 89.2   751.86602
  3  2  1   734.95065 25.7   751.97957    4  4  1   703.66728 76.5   751.98046
  3  2  1   734.97612 79.5   752.00504    4  4  1   703.69193 74.3   752.00511
  3  2  1   734.99300 77.0   752.02192    4  4  1   703.70778 89.9   752.02096
  3  2  1   735.12738 78.7   752.15630    4  4  1   703.84342 78.2   752.15660
  3  2  1   735.20668 84.9   752.23560    4  4  1   703.92243 85.4   752.23561
  3  2  1   735.26750 73.4   752.29642    4  4  1   703.98288 86.9   752.29606
  3  2  1   735.31028 54.4   752.33920    4  4  1   704.02503 83.8   752.33821
  3  2  1   735.54807 69.4   752.57699    4  4  1   704.26341 83.0   752.57659
  3  2  1   735.61065 40.6   752.63957    4  4  1   704.32690 42.5   752.64008
  3  2  1   735.62496 79.9   752.65388    4  4  1   704.34024 89.2   752.65342
  3  2  1   735.65640 38.7   752.68532    4  4  1   704.37221 78.1   752.68539
  3  2  1   735.67538 88.1   752.70430    4  4  1   704.39014 81.7   752.70332

 Searching   4  3  2 near    757.32401
 No   1:   3  2  2       16.97774  reg   739.346 -   741.346
 No   2:   4  2  2       22.72108  reg   733.603 -   735.603
 No   3:   5  4  2       55.33476  reg   700.989 -   702.989
  3  2  2   739.35321 54.9   756.33095    5  4  2   700.99528 86.4   756.33004
  3  2  2   739.40271 66.1   756.38045    4  2  2   733.65997 70.2   756.38105
                                          5  4  2   701.04603 89.1   756.38079
  3  2  2   739.44118 77.6   756.41892    5  4  2   701.08467 83.0   756.41943
  3  2  2   739.48206 65.1   756.45980    4  2  2   733.73900 81.1   756.46008
  3  2  2   739.48685 66.6   756.46459    4  2  2   733.74364 80.6   756.46472
  3  2  2   739.49894 73.3   756.47668    5  4  2   701.14236 82.5   756.47712
  3  2  2   739.52792 30.9   756.50566    5  4  2   701.17007 42.4   756.50483
  3  2  2   739.58606 75.1   756.56380    4  2  2   733.84240 53.8   756.56348
                                          5  4  2   701.22964 87.6   756.56440
  3  2  2   739.60966 62.6   756.58740    5  4  2   701.25249 76.9   756.58725
  3  2  2   739.62089 68.9   756.59863    4  2  2   733.87829 86.5   756.59937
  3  2  2   739.66439 74.3   756.64213    4  2  2   733.92029 68.2   756.64137
  3  2  2   739.68941 42.1   756.66715    5  4  2   701.33255 81.0   756.66731
  3  2  2   739.70571 64.7   756.68345    4  2  2   733.96225 79.3   756.68333
  3  2  2   739.73602 87.3   756.71376    5  4  2   701.37880 84.2   756.71356
  3  2  2   739.76645 88.0   756.74419    4  2  2   734.02400 30.4   756.74508
  3  2  2   739.80937 44.8   756.78711    4  2  2   734.06508 77.1   756.78616
                                          5  4  2   701.45251 43.0   756.78727
  3  2  2   739.81565 39.5   756.79339    5  4  2   701.45812 88.8   756.79288
  3  2  2   739.83290 12.9   756.81064    4  2  2   734.09023 38.6   756.81131
  3  2  2   739.84412 12.4   756.82186    4  2  2   734.09993 14.4   756.82101
                                          5  4  2   701.48660 85.8   756.82136
  3  2  2   739.86558 84.4   756.84332    5  4  2   701.50827 83.2   756.84303
  3  2  2   739.89423 43.6   756.87197    5  4  2   701.53658 73.9   756.87134
  3  2  2   739.93703 80.0   756.91477    4  2  2   734.19386 79.1   756.91494
  3  2  2   739.94187 81.9   756.91961    5  4  2   701.58514 78.3   756.91990
  3  2  2   739.99424 81.2   756.97198    4  2  2   734.25077 40.9   756.97185
  3  2  2   740.04447 75.2   757.02221    4  2  2   734.30184 69.6   757.02292
  3  2  2   740.04986 72.2   757.02760    4  2  2   734.30663 88.3   757.02771
  3  2  2   740.06860 73.8   757.04634    4  2  2   734.32517 87.1   757.04625
  3  2  2   740.07346 85.4   757.05120    5  4  2   701.71553 84.1   757.05029
  3  2  2   740.19430 48.2   757.17204    5  4  2   701.83650 74.3   757.17126
  3  2  2   740.20419 82.7   757.18193    5  4  2   701.84765 10.1   757.18241
  3  2  2   740.27124 83.2   757.24898    4  2  2   734.52766 85.5   757.24874
  3  2  2   740.29218 11.7   757.26992    5  4  2   701.93486 36.1   757.26962
  3  2  2   740.29965 76.5   757.27739    4  2  2   734.55639 66.9   757.27747
  3  2  2   740.38874 56.9   757.36648    5  4  2   702.03252 89.7   757.36728
  3  2  2   740.42431 21.3   757.40205    4  2  2   734.68071 88.5   757.40179
  3  2  2   740.44766 86.1   757.42540    5  4  2   702.09099 89.1   757.42575
  3  2  2   740.50167 62.6   757.47941    4  2  2   734.75885 87.8   757.47993
                                          5  4  2   702.14409 75.9   757.47885
  3  2  2   740.51782 59.5   757.49556    4  2  2   734.77381 88.9   757.49489
  3  2  2   740.54814 45.7   757.52588    4  2  2   734.80401 63.0   757.52509
  3  2  2   740.55755 76.7   757.53529    4  2  2   734.81354 32.2   757.53462
  3  2  2   740.60203 78.3   757.57977    4  2  2   734.85886 34.7   757.57994
  3  2  2   740.61663 85.6   757.59437    4  2  2   734.87360 77.9   757.59468
  3  2  2   740.62745 68.7   757.60519    4  2  2   734.88442 47.3   757.60550
  3  2  2   740.68941 67.2   757.66715    4  2  2   734.94596 14.8   757.66704
  3  2  2   740.69455 60.2   757.67229    4  2  2   734.95065 25.7   757.67173
  3  2  2   740.72317 79.2   757.70091    5  4  2   702.36540 65.7   757.70016
  3  2  2   740.77660 87.6   757.75434    4  2  2   735.03283 12.2   757.75391
  3  2  2   740.79446 77.8   757.77220    5  4  2   702.43815 41.3   757.77291
  3  2  2   740.80908 83.3   757.78682    4  2  2   735.06601 43.7   757.78709
  3  2  2   740.81415 30.5   757.79189    5  4  2   702.45728 25.4   757.79204
  3  2  2   740.82422 32.6   757.80196    5  4  2   702.46816 67.9   757.80292
  3  2  2   740.84189 85.0   757.81963    4  2  2   735.09758 78.9   757.81866
                                          5  4  2   702.48539 69.8   757.82015
  3  2  2   740.85990 54.0   757.83764    4  2  2   735.11675 84.1   757.83783
                                          5  4  2   702.50306 58.8   757.83782
  3  2  2   740.87797 17.3   757.85571    4  2  2   735.13520 30.0   757.85628
  3  2  2   740.89136 46.2   757.86910    4  2  2   735.14818 63.7   757.86926
                                          5  4  2   702.53365 65.8   757.86841
  3  2  2   740.90387 19.9   757.88161    4  2  2   735.15956 58.8   757.88064
  3  2  2   740.93554 87.3   757.91328    4  2  2   735.19171 48.5   757.91279
  3  2  2   740.97464 61.6   757.95238    5  4  2   702.61713 82.0   757.95189
  3  2  2   740.98420 78.3   757.96194    4  2  2   735.24011 46.0   757.96119
  3  2  2   741.00461 83.6   757.98235    5  4  2   702.64683 35.8   757.98159
  3  2  2   741.02112 88.3   757.99886    4  2  2   735.27738 24.5   757.99846
  3  2  2   741.12074 83.7   758.09848    5  4  2   702.76362 89.2   758.09838
  3  2  2   741.13188 87.1   758.10962    5  4  2   702.77449 77.2   758.10925
  3  2  2   741.22148 31.0   758.19922    4  2  2   735.47772 88.5   758.19880
                                          5  4  2   702.86408 72.8   758.19884
  3  2  2   741.23159 70.5   758.20933    4  2  2   735.48770 14.2   758.20878
                                          5  4  2   702.87543 75.9   758.21019
  3  2  2   741.24071 36.5   758.21845    5  4  2   702.88358 89.9   758.21834
  3  2  2   741.24666 68.9   758.22440    4  2  2   735.50298 14.9   758.22406
  3  2  2   741.26044 76.2   758.23818    4  2  2   735.51611 52.0   758.23719
                                          5  4  2   702.90395 11.1   758.23871
  3  2  2   741.34007 76.1   758.31781    5  4  2   702.98266 26.4   758.31742
  4  2  2   733.60344 69.6   756.32452    5  4  2   700.99021 82.2   756.32497
  4  2  2   733.62142 83.1   756.34250    5  4  2   701.00849 84.1   756.34325
  4  2  2   733.62711 70.5   756.34819    5  4  2   701.01373 87.3   756.34849
  4  2  2   733.65529 83.0   756.37637    5  4  2   701.04165 79.4   756.37641
  4  2  2   733.65997 70.2   756.38105    5  4  2   701.04603 89.1   756.38079
  4  2  2   733.69531 49.0   756.41639    5  4  2   701.08102 80.2   756.41578
  4  2  2   733.71131 67.0   756.43239    5  4  2   701.09733 35.0   756.43209
  4  2  2   733.79480 84.0   756.51588    5  4  2   701.18162 64.7   756.51638
  4  2  2   733.83515 86.0   756.55623    5  4  2   701.22077 83.3   756.55553
  4  2  2   733.84240 53.8   756.56348    5  4  2   701.22964 87.6   756.56440
  4  2  2   733.84863 62.6   756.56971    5  4  2   701.23505 72.9   756.56981
  4  2  2   734.01291 86.2   756.73399    5  4  2   701.39875 74.1   756.73351
  4  2  2   734.09993 14.4   756.82101    5  4  2   701.48660 85.8   756.82136
  4  2  2   734.34758 13.4   757.06866    5  4  2   701.73327 23.8   757.06803
  4  2  2   734.41624 80.5   757.13732    5  4  2   701.80337 79.9   757.13813
  4  2  2   734.42239 52.3   757.14347    5  4  2   701.80845 87.3   757.14321
  4  2  2   734.46190 59.6   757.18298    5  4  2   701.84765 10.1   757.18241
  4  2  2   734.71182 83.9   757.43290    5  4  2   702.09802 24.4   757.43278
  4  2  2   734.83646 13.0   757.55754    5  4  2   702.22256 13.7   757.55732
  4  2  2   734.92562 78.4   757.64670    5  4  2   702.31162 88.8   757.64638
  4  2  2   734.93050 52.1   757.65158    5  4  2   702.31706 75.8   757.65182
  4  2  2   734.99300 77.0   757.71408    5  4  2   702.37840 87.9   757.71316
  4  2  2   734.99788 46.0   757.71896    5  4  2   702.38357 80.3   757.71833
  4  2  2   735.10371 79.1   757.82479    5  4  2   702.49030 83.7   757.82506
  4  2  2   735.11675 84.1   757.83783    5  4  2   702.50306 58.8   757.83782
  4  2  2   735.14818 63.7   757.86926    5  4  2   702.53365 65.8   757.86841
  4  2  2   735.17306 46.2   757.89414    5  4  2   702.55882 79.6   757.89358
  4  2  2   735.32399 72.8   758.04507    5  4  2   702.70938 12.1   758.04414
  4  2  2   735.33329 41.5   758.05437    5  4  2   702.71910 88.6   758.05386
  4  2  2   735.36774 78.3   758.08882    5  4  2   702.75311 10.9   758.08787
  4  2  2   735.40208 82.6   758.12316    5  4  2   702.78851 87.2   758.12327
  4  2  2   735.42104 49.3   758.14212    5  4  2   702.80803 66.4   758.14279
  4  2  2   735.42831 82.1   758.14939    5  4  2   702.81371 75.8   758.14847
  4  2  2   735.47772 88.5   758.19880    5  4  2   702.86408 72.8   758.19884
  4  2  2   735.51227 46.5   758.23335    5  4  2   702.89811 87.7   758.23287
  4  2  2   735.52695 82.4   758.24803    5  4  2   702.91303 78.1   758.24779
  4  2  2   735.61065 40.6   758.33173    5  4  2   702.99648 69.7   758.33124

 Searching   5  3  3 near    764.35448
 No   1:   4  2  3       22.56924  reg   740.785 -   742.785
 No   2:   5  2  3       29.89272  reg   733.462 -   735.462
 No   3:   6  4  3       63.76783  reg   699.587 -   701.587
  4  2  3   740.78975 83.2   763.35899    5  2  3   733.46697 72.3   763.35969
                                          6  4  3   699.59081 78.9   763.35864
  4  2  3   740.79446 77.8   763.36370    6  4  3   699.59499 88.4   763.36282
  4  2  3   740.86521 85.7   763.43445    5  2  3   733.54143 45.9   763.43416
  4  2  3   740.91214 40.5   763.48138    5  2  3   733.58786 18.7   763.48058
  4  2  3   740.95198 76.5   763.52122    6  4  3   699.75366 73.2   763.52149
  4  2  3   740.97464 61.6   763.54388    6  4  3   699.77653 73.9   763.54436
  4  2  3   740.98068 70.3   763.54992    6  4  3   699.78160 30.9   763.54943
  4  2  3   740.98420 78.3   763.55344    5  2  3   733.65997 70.2   763.55269
  4  2  3   741.01374 82.3   763.58298    5  2  3   733.69035 70.4   763.58307
  4  2  3   741.03537 77.5   763.60461    5  2  3   733.71131 67.0   763.60403
  4  2  3   741.06363 89.7   763.63287    6  4  3   699.86599 81.0   763.63383
  4  2  3   741.08951 89.9   763.65875    6  4  3   699.89143 89.8   763.65926
  4  2  3   741.18058 58.9   763.74982    5  2  3   733.85779 83.3   763.75051
                                          6  4  3   699.98110 18.6   763.74893
  4  2  3   741.19511 84.4   763.76435    5  2  3   733.87231 31.2   763.76503
  4  2  3   741.22148 31.0   763.79072    6  4  3   700.02215 82.7   763.78998
  4  2  3   741.29495 57.9   763.86419    5  2  3   733.97048 68.1   763.86320
  4  2  3   741.32496 73.6   763.89420    5  2  3   734.00145 84.7   763.89417
  4  2  3   741.35069 43.7   763.91993    6  4  3   700.15243 68.0   763.92026
  4  2  3   741.35757 18.6   763.92681    5  2  3   734.03403 73.1   763.92675
  4  2  3   741.45265 56.4   764.02189    6  4  3   700.25447 78.3   764.02230
  4  2  3   741.46563 88.0   764.03487    6  4  3   700.26716 19.4   764.03499
  4  2  3   741.50707 80.6   764.07631    6  4  3   700.30822 47.8   764.07605
  4  2  3   741.55048 76.9   764.11972    5  2  3   734.22623 88.5   764.11895
  4  2  3   741.56503 11.8   764.13427    6  4  3   700.36671 82.7   764.13454
  4  2  3   741.62415 50.9   764.19339    6  4  3   700.42488 83.0   764.19271
  4  2  3   741.62966 85.3   764.19890    5  2  3   734.30663 88.3   764.19935
                                          6  4  3   700.43046 45.3   764.19829
  4  2  3   741.67723 89.8   764.24647    5  2  3   734.35418 74.2   764.24690
                                          6  4  3   700.47928 58.6   764.24711
  4  2  3   741.69826 82.0   764.26750    6  4  3   700.49873 89.2   764.26656
  4  2  3   741.70472 50.4   764.27396    6  4  3   700.50607 46.3   764.27390
  4  2  3   741.72818 83.4   764.29742    6  4  3   700.52876 29.1   764.29659
  4  2  3   741.73735 29.2   764.30659    6  4  3   700.53796 66.9   764.30579
  4  2  3   741.76625 82.6   764.33549    5  2  3   734.44191 85.3   764.33463
  4  2  3   741.78585 67.1   764.35509    5  2  3   734.46190 59.6   764.35462
  4  2  3   741.87789 18.5   764.44713    6  4  3   700.67835 84.2   764.44618
  4  2  3   741.94203 20.8   764.51127    6  4  3   700.74386 45.3   764.51169
  4  2  3   741.94817 62.1   764.51741    6  4  3   700.74888 85.1   764.51671
  4  2  3   741.95288 61.7   764.52212    5  2  3   734.62846 73.9   764.52118
                                          6  4  3   700.75418 44.8   764.52201
  4  2  3   741.96691 72.4   764.53615    5  2  3   734.64246 45.2   764.53518
  4  2  3   741.97107 84.7   764.54031    5  2  3   734.64797 89.4   764.54069
  4  2  3   741.98599 79.9   764.55523    6  4  3   700.78687 51.8   764.55470
  4  2  3   742.01128 65.7   764.58052    5  2  3   734.68834 72.3   764.58106
  4  2  3   742.01731 85.2   764.58655    5  2  3   734.69382 80.4   764.58654
  4  2  3   742.05431 15.4   764.62355    5  2  3   734.73180 42.3   764.62452
  4  2  3   742.08733 33.8   764.65657    5  2  3   734.76302 72.3   764.65574
  4  2  3   742.10266 71.6   764.67190    6  4  3   700.90371 69.0   764.67154
  4  2  3   742.11061 46.5   764.67985    5  2  3   734.78738 85.8   764.68010
  4  2  3   742.12650 28.6   764.69574    5  2  3   734.80401 63.0   764.69673
  4  2  3   742.21679 47.9   764.78603    6  4  3   701.01804 79.0   764.78587
  4  2  3   742.23613 54.7   764.80537    5  2  3   734.91172 81.3   764.80444
  4  2  3   742.24267 84.1   764.81191    5  2  3   734.91940 88.4   764.81212
  4  2  3   742.24923 72.4   764.81847    5  2  3   734.92562 78.4   764.81834
  4  2  3   742.25363 77.1   764.82287    5  2  3   734.93050 52.1   764.82322
  4  2  3   742.26587 72.0   764.83511    6  4  3   701.06667 87.8   764.83450
  4  2  3   742.29650 84.8   764.86574    6  4  3   701.09733 35.0   764.86516
  4  2  3   742.31125 88.7   764.88049    5  2  3   734.98754 38.0   764.88026
  4  2  3   742.31584 85.7   764.88508    5  2  3   734.99300 77.0   764.88572
  4  2  3   742.32146 48.8   764.89070    5  2  3   734.99788 46.0   764.89060
  4  2  3   742.33099 83.4   764.90023    5  2  3   735.00714 67.5   764.89986
                                          6  4  3   701.13316 69.0   764.90099
  4  2  3   742.33633 88.0   764.90557    5  2  3   735.01203 82.9   764.90475
  4  2  3   742.38547 81.2   764.95471    6  4  3   701.18769 83.8   764.95552
  4  2  3   742.41084 89.3   764.98008    5  2  3   735.08741 41.5   764.98013
  4  2  3   742.52433 85.2   765.09357    5  2  3   735.20181 66.5   765.09453
  4  2  3   742.58503 74.3   765.15427    5  2  3   735.26240 89.8   765.15512
  4  2  3   742.59068 77.7   765.15992    5  2  3   735.26750 73.4   765.16022
  4  2  3   742.60928 57.1   765.17852    6  4  3   701.41149 81.5   765.17932
  4  2  3   742.61547 53.4   765.18471    6  4  3   701.41725 86.2   765.18508
  4  2  3   742.63888 42.5   765.20812    5  2  3   735.31501 28.3   765.20773
  4  2  3   742.65033 75.9   765.21957    6  4  3   701.45251 43.0   765.22034
  4  2  3   742.66241 88.7   765.23165    5  2  3   735.33884 73.5   765.23156
  4  2  3   742.67154 64.5   765.24078    5  2  3   735.34823 83.4   765.24095
                                          6  4  3   701.47213 50.4   765.23996
  4  2  3   742.72562 78.0   765.29486    5  2  3   735.40208 82.6   765.29480
  4  2  3   742.74378 74.4   765.31302    5  2  3   735.42104 49.3   765.31376
  5  2  3   733.51229 87.7   763.40501    6  4  3   699.63739 60.3   763.40522
  5  2  3   733.62142 83.1   763.51414    6  4  3   699.74727 84.1   763.51510
  5  2  3   733.67150 58.1   763.56422    6  4  3   699.79635 67.9   763.56418
  5  2  3   733.67702 76.1   763.56974    6  4  3   699.80180 55.9   763.56963
  5  2  3   733.78192 88.1   763.67464    6  4  3   699.90649 76.2   763.67432
  5  2  3   733.92029 68.2   763.81301    6  4  3   700.04573 63.5   763.81356
  5  2  3   734.18827 68.2   764.08100    6  4  3   700.31408 79.4   764.08191
  5  2  3   734.25077 40.9   764.14349    6  4  3   700.37662 82.9   764.14445
  5  2  3   734.32517 87.1   764.21789    6  4  3   700.44960 88.5   764.21743
  5  2  3   734.34758 13.4   764.24030    6  4  3   700.47340 83.0   764.24123
  5  2  3   734.35418 74.2   764.24690    6  4  3   700.47928 58.6   764.24711
  5  2  3   734.48586 44.0   764.37858    6  4  3   700.61014 27.8   764.37797
  5  2  3   734.53231 73.2   764.42503    6  4  3   700.65634 88.6   764.42417
  5  2  3   734.62846 73.9   764.52118    6  4  3   700.75418 44.8   764.52201
  5  2  3   734.81354 32.2   764.70626    6  4  3   700.93847 59.0   764.70630
  5  2  3   734.81973 85.1   764.71245    6  4  3   700.94478 72.5   764.71261
  5  2  3   734.88442 47.3   764.77714    6  4  3   701.00849 84.1   764.77632
  5  2  3   734.94596 14.8   764.83868    6  4  3   701.07137 88.6   764.83920
  5  2  3   734.95659 72.6   764.84931    6  4  3   701.08102 80.2   764.84885
  5  2  3   735.01738 60.7   764.91010    6  4  3   701.14236 82.5   764.91019
  5  2  3   735.06601 43.7   764.95873    6  4  3   701.19137 81.9   764.95920
  5  2  3   735.11675 84.1   765.00947    6  4  3   701.24228 70.8   765.01011
  5  2  3   735.12738 78.7   765.02010    6  4  3   701.25249 76.9   765.02032
  5  2  3   735.14104 85.1   765.03376    6  4  3   701.26585 89.7   765.03368
  5  2  3   735.16595 68.2   765.05867    6  4  3   701.29096 56.0   765.05879
  5  2  3   735.17306 46.2   765.06578    6  4  3   701.29760 85.0   765.06543
  5  2  3   735.20668 84.9   765.09940    6  4  3   701.33255 81.0   765.10038
  5  2  3   735.24011 46.0   765.13283    6  4  3   701.36549 77.8   765.13332
  5  2  3   735.33329 41.5   765.22601    6  4  3   701.45812 88.8   765.22595
  5  2  3   735.34823 83.4   765.24095    6  4  3   701.47213 50.4   765.23996
  5  2  3   735.42104 49.3   765.31376    6  4  3   701.54678 82.7   765.31461

 Searching   6  3  4 near    772.79940
 No   1:   5  2  4       29.54562  reg   742.254 -   744.254
 No   2:   6  2  4       38.57011  reg   733.229 -   735.229
 No   3:   7  4  4       73.61611  reg   698.183 -   700.183
  5  2  4   742.31125 88.7   771.85687    6  2  4   733.28677 62.7   771.85688
  5  2  4   742.35965 85.0   771.90527    6  2  4   733.33580 47.2   771.90591
                                          7  4  4   698.28839 86.9   771.90450
  5  2  4   742.36547 18.3   771.91109    6  2  4   733.34038 80.9   771.91049
  5  2  4   742.41084 89.3   771.95646    6  2  4   733.38540 78.6   771.95551
  5  2  4   742.45285 74.5   771.99847    6  2  4   733.42776 17.3   771.99787
  5  2  4   742.49436 89.4   772.03998    7  4  4   698.42309 36.5   772.03920
  5  2  4   742.52433 85.2   772.06995    7  4  4   698.45377 66.6   772.06988
  5  2  4   742.60382 80.5   772.14944    7  4  4   698.53327 84.3   772.14938
  5  2  4   742.70078 84.6   772.24640    6  2  4   733.67702 76.1   772.24713
  5  2  4   742.71533 57.1   772.26095    6  2  4   733.69035 70.4   772.26046
  5  2  4   742.72562 78.0   772.27124    6  2  4   733.70091 54.7   772.27102
  5  2  4   742.74378 74.4   772.28940    7  4  4   698.67355 45.0   772.28966
  5  2  4   742.77244 79.0   772.31806    6  2  4   733.74790 77.6   772.31801
  5  2  4   742.81379 84.8   772.35941    7  4  4   698.74355 55.6   772.35966
  5  2  4   742.81836 75.3   772.36398    6  2  4   733.79480 84.0   772.36491
  5  2  4   742.82377 66.3   772.36939    7  4  4   698.75323 83.9   772.36934
  5  2  4   742.82888 44.5   772.37450    7  4  4   698.75827 72.8   772.37438
  5  2  4   742.83417 87.0   772.37979    6  2  4   733.81055 80.2   772.38066
  5  2  4   742.86609 48.6   772.41171    6  2  4   733.84240 53.8   772.41251
  5  2  4   742.94417 48.2   772.48979    6  2  4   733.92029 68.2   772.49040
  5  2  4   742.97150 51.0   772.51712    6  2  4   733.94755 72.2   772.51766
  5  2  4   742.97738 43.2   772.52300    6  2  4   733.95334 57.1   772.52345
  5  2  4   743.00483 87.4   772.55045    7  4  4   698.93431 88.3   772.55042
  5  2  4   743.00921 89.5   772.55483    6  2  4   733.98547 74.2   772.55558
                                          7  4  4   698.93896 70.2   772.55507
  5  2  4   743.01470 27.4   772.56032    6  2  4   733.99053 42.8   772.56064
  5  2  4   743.02014 84.3   772.56576    7  4  4   698.94926 51.5   772.56537
  5  2  4   743.03364 52.1   772.57926    7  4  4   698.96377 68.6   772.57988
  5  2  4   743.03940 76.3   772.58502    7  4  4   698.96871 81.5   772.58482
  5  2  4   743.04810 84.2   772.59372    6  2  4   734.02400 30.4   772.59411
  5  2  4   743.05354 50.2   772.59916    6  2  4   734.02939 74.3   772.59950
  5  2  4   743.07695 82.8   772.62257    6  2  4   734.05231 84.6   772.62242
                                          7  4  4   699.00568 86.5   772.62179
  5  2  4   743.09907 79.8   772.64469    6  2  4   734.07380 71.6   772.64391
  5  2  4   743.13929 55.3   772.68491    6  2  4   734.11467 64.9   772.68478
  5  2  4   743.19952 66.2   772.74514    6  2  4   734.17577 54.2   772.74588
  5  2  4   743.28971 69.2   772.83533    7  4  4   699.21961 84.4   772.83572
  5  2  4   743.35035 74.9   772.89597    6  2  4   734.32517 87.1   772.89528
                                          7  4  4   699.28077 68.6   772.89688
  5  2  4   743.36114 83.1   772.90676    7  4  4   699.29135 82.6   772.90746
  5  2  4   743.37817 29.9   772.92379    6  2  4   734.35418 74.2   772.92429
  5  2  4   743.39825 74.8   772.94387    7  4  4   699.32855 68.3   772.94466
  5  2  4   743.41241 75.2   772.95803    7  4  4   699.34162 89.5   772.95773
  5  2  4   743.42257 43.3   772.96819    6  2  4   734.39818 80.7   772.96829
  5  2  4   743.45909 31.3   773.00471    7  4  4   699.38790 59.1   773.00401
  5  2  4   743.48727 85.1   773.03289    6  2  4   734.46190 59.6   773.03201
  5  2  4   743.53048 74.8   773.07610    7  4  4   699.45963 61.1   773.07574
  5  2  4   743.54009 74.6   773.08571    7  4  4   699.46968 35.9   773.08579
  5  2  4   743.61748 48.9   773.16310    7  4  4   699.54642 31.7   773.16253
  5  2  4   743.63663 86.6   773.18225    6  2  4   734.61221 81.8   773.18232
  5  2  4   743.66526 86.1   773.21088    7  4  4   699.59499 88.4   773.21110
  5  2  4   743.67261 15.5   773.21823    6  2  4   734.64797 89.4   773.21808
  5  2  4   743.68344 86.4   773.22906    6  2  4   734.65946 46.8   773.22957
  5  2  4   743.69760 66.5   773.24322    6  2  4   734.67367 24.0   773.24378
  5  2  4   743.78409 16.1   773.32971    6  2  4   734.75885 87.8   773.32896
  5  2  4   743.81828 85.3   773.36390    6  2  4   734.79324 41.3   773.36335
                                          7  4  4   699.74727 84.1   773.36338
  5  2  4   743.84121 82.1   773.38683    7  4  4   699.77110 87.9   773.38721
  5  2  4   743.88768 82.8   773.43330    7  4  4   699.81639 75.8   773.43250
  5  2  4   743.92953 72.3   773.47515    7  4  4   699.85954 54.5   773.47565
  5  2  4   743.95581 67.1   773.50143    6  2  4   734.93050 52.1   773.50061
  5  2  4   743.96228 63.7   773.50790    7  4  4   699.89143 89.8   773.50754
  5  2  4   743.99990 62.4   773.54552    6  2  4   734.97612 79.5   773.54623
  5  2  4   744.07038 77.1   773.61600    7  4  4   700.00037 74.4   773.61648
  5  2  4   744.12790 83.7   773.67352    6  2  4   735.10371 79.1   773.67382
  5  2  4   744.15261 89.6   773.69823    6  2  4   735.12738 78.7   773.69749
  5  2  4   744.17281 58.7   773.71843    6  2  4   735.14818 63.7   773.71829
  5  2  4   744.19791 56.1   773.74353    6  2  4   735.17306 46.2   773.74317
  5  2  4   744.22039 80.5   773.76601    6  2  4   735.19629 31.2   773.76640
  5  2  4   744.22594 85.9   773.77156    6  2  4   735.20181 66.5   773.77192
  5  2  4   744.23163 51.8   773.77725    6  2  4   735.20668 84.9   773.77679
  6  2  4   733.25981 50.5   771.82992    7  4  4   698.21389 81.6   771.83000
  6  2  4   733.57407 76.3   772.14418    7  4  4   698.52788 87.2   772.14399
  6  2  4   733.67702 76.1   772.24713    7  4  4   698.63188 15.9   772.24799
  6  2  4   733.72555 81.6   772.29566    7  4  4   698.67878 84.7   772.29489
  6  2  4   733.73117 73.6   772.30128    7  4  4   698.68463 89.7   772.30074
  6  2  4   733.82843 61.5   772.39854    7  4  4   698.78260 12.8   772.39871
  6  2  4   733.83515 86.0   772.40526    7  4  4   698.78834 89.0   772.40445
  6  2  4   733.90320 74.6   772.47331    7  4  4   698.85763 87.4   772.47374
  6  2  4   733.98547 74.2   772.55558    7  4  4   698.93896 70.2   772.55507
  6  2  4   734.00145 84.7   772.57156    7  4  4   698.95521 28.4   772.57132
  6  2  4   734.05231 84.6   772.62242    7  4  4   699.00568 86.5   772.62179
  6  2  4   734.06508 77.1   772.63519    7  4  4   699.01991 65.9   772.63602
  6  2  4   734.25077 40.9   772.82088    7  4  4   699.20551 89.6   772.82162
  6  2  4   734.34758 13.4   772.91769    7  4  4   699.30150 81.6   772.91761
  6  2  4   734.38235 76.2   772.95246    7  4  4   699.33614 81.6   772.95225
  6  2  4   734.46190 59.6   773.03201    7  4  4   699.41530 89.7   773.03141
  6  2  4   734.52766 85.5   773.09777    7  4  4   699.48078 86.9   773.09689
  6  2  4   734.53231 73.2   773.10242    7  4  4   699.48617 83.8   773.10228
  6  2  4   734.53712 85.8   773.10723    7  4  4   699.49130 57.8   773.10741
  6  2  4   734.55639 66.9   773.12650    7  4  4   699.51112 88.6   773.12723
  6  2  4   734.78218 77.2   773.35229    7  4  4   699.73558 55.3   773.35169
  6  2  4   734.79324 41.3   773.36335    7  4  4   699.74727 84.1   773.36338
  6  2  4   734.83646 13.0   773.40657    7  4  4   699.79032 13.4   773.40643
  6  2  4   734.87360 77.9   773.44371    7  4  4   699.82735 12.8   773.44346
  6  2  4   734.88442 47.3   773.45453    7  4  4   699.83811 83.1   773.45422
  6  2  4   734.89050 70.2   773.46061    7  4  4   699.84440 64.4   773.46051
  6  2  4   734.91172 81.3   773.48183    7  4  4   699.86599 81.0   773.48211
  6  2  4   734.94596 14.8   773.51607    7  4  4   699.89989 75.5   773.51600
  6  2  4   734.98754 38.0   773.55765    7  4  4   699.94134 82.8   773.55745
  6  2  4   735.00714 67.5   773.57725    7  4  4   699.96132 81.0   773.57743
  6  2  4   735.01203 82.9   773.58214    7  4  4   699.96614 76.7   773.58225
  6  2  4   735.01738 60.7   773.58749    7  4  4   699.97065 73.9   773.58676
  6  2  4   735.02732 16.0   773.59743    7  4  4   699.98110 18.6   773.59721
  6  2  4   735.11675 84.1   773.68686    7  4  4   700.07033 86.6   773.68644
  6  2  4   735.19171 48.5   773.76182    7  4  4   700.14567 73.1   773.76178

 Searching   7  3  5 near    782.66042
 No   1:   6  2  5       37.89832  reg   743.762 -   745.762
 No   2:   7  2  5       48.77161  reg   732.889 -   734.889
 No   3:   8  4  5       84.88362  reg   696.777 -   698.777
  6  2  5   743.76510 85.7   781.66342    8  4  5   696.77936 72.8   781.66298
  6  2  5   743.78978 86.3   781.68810    8  4  5   696.80362 48.7   781.68724
  6  2  5   743.81828 85.3   781.71660    7  2  5   732.94520 62.7   781.71681
                                          8  4  5   696.83205 78.6   781.71567
  6  2  5   743.88768 82.8   781.78600    8  4  5   696.90195 87.3   781.78557
  6  2  5   743.91601 82.7   781.81433    8  4  5   696.93112 65.8   781.81474
  6  2  5   743.92953 72.3   781.82785    7  2  5   733.05664 71.8   781.82825
                                          8  4  5   696.94400 52.1   781.82762
  6  2  5   743.97348 67.7   781.87180    8  4  5   696.98902 51.9   781.87264
  6  2  5   743.98480 89.7   781.88312    7  2  5   733.11224 87.5   781.88385
  6  2  5   743.99990 62.4   781.89822    7  2  5   733.12568 14.4   781.89729
  6  2  5   744.01055 84.7   781.90887    7  2  5   733.13665 77.7   781.90826
  6  2  5   744.12790 83.7   782.02622    7  2  5   733.25434 49.1   782.02595
  6  2  5   744.13318 85.7   782.03150    7  2  5   733.25981 50.5   782.03142
  6  2  5   744.13816 73.3   782.03648    8  4  5   697.15346 54.3   782.03708
  6  2  5   744.18210 84.6   782.08042    7  2  5   733.30820 89.4   782.07981
  6  2  5   744.18669 87.3   782.08501    7  2  5   733.31415 65.9   782.08576
  6  2  5   744.19195 56.3   782.09027    7  2  5   733.31964 78.5   782.09125
  6  2  5   744.19791 56.1   782.09623    7  2  5   733.32556 44.5   782.09717
  6  2  5   744.22594 85.9   782.12426    8  4  5   697.24082 45.3   782.12444
  6  2  5   744.23803 78.2   782.13635    7  2  5   733.36405 42.5   782.13566
  6  2  5   744.25836 86.9   782.15668    7  2  5   733.38540 78.6   782.15701
  6  2  5   744.26858 69.8   782.16690    8  4  5   697.28424 72.6   782.16786
  6  2  5   744.29504 58.8   782.19336    8  4  5   697.30903 88.3   782.19265
  6  2  5   744.30885 38.1   782.20717    7  2  5   733.43483 46.6   782.20644
  6  2  5   744.31486 70.4   782.21318    7  2  5   733.44250 67.5   782.21411
  6  2  5   744.50870 31.0   782.40702    8  4  5   697.52424 51.0   782.40786
  6  2  5   744.51478 74.6   782.41310    8  4  5   697.53010 59.5   782.41372
  6  2  5   744.64049 84.8   782.53881    7  2  5   733.76816 76.1   782.53977
  6  2  5   744.74503 28.1   782.64335    7  2  5   733.87231 31.2   782.64392
  6  2  5   744.78053 62.7   782.67885    8  4  5   697.79465 73.1   782.67827
  6  2  5   744.78565 19.8   782.68397    8  4  5   697.80108 63.1   782.68470
  6  2  5   744.82983 38.4   782.72815    8  4  5   697.84384 45.1   782.72746
  6  2  5   744.83573 45.3   782.73405    7  2  5   733.96225 79.3   782.73386
  6  2  5   744.85915 46.6   782.75747    7  2  5   733.98547 74.2   782.75708
                                          8  4  5   697.87304 85.5   782.75666
  6  2  5   744.86445 62.3   782.76277    7  2  5   733.99053 42.8   782.76214
  6  2  5   744.92439 49.2   782.82271    8  4  5   697.93990 83.1   782.82352
  6  2  5   744.97416 88.5   782.87248    7  2  5   734.09993 14.4   782.87154
  6  2  5   745.00396 88.5   782.90228    8  4  5   698.01792 28.5   782.90154
  6  2  5   745.02559 83.9   782.92391    7  2  5   734.15211 82.5   782.92372
  6  2  5   745.04102 83.3   782.93934    8  4  5   698.05570 85.7   782.93932
  6  2  5   745.07402 89.3   782.97234    8  4  5   698.08815 22.3   782.97177
  6  2  5   745.07949 71.8   782.97781    8  4  5   698.09505 87.3   782.97867
  6  2  5   745.10749 89.9   783.00581    7  2  5   734.23511 67.4   783.00672
  6  2  5   745.20005 56.0   783.09837    8  4  5   698.21389 81.6   783.09751
  6  2  5   745.22724 87.9   783.12556    7  2  5   734.35418 74.2   783.12579
  6  2  5   745.25655 60.6   783.15487    7  2  5   734.38235 76.2   783.15396
  6  2  5   745.30634 85.9   783.20466    8  4  5   698.32145 57.5   783.20507
  6  2  5   745.37713 74.6   783.27545    8  4  5   698.39133 41.8   783.27495
  6  2  5   745.38220 89.3   783.28052    7  2  5   734.50843 61.0   783.28004
  6  2  5   745.39226 68.7   783.29058    8  4  5   698.40783 86.3   783.29145
  6  2  5   745.39585 86.2   783.29417    7  2  5   734.52190 57.0   783.29351
  6  2  5   745.41077 37.3   783.30909    7  2  5   734.53712 85.8   783.30873
  6  2  5   745.48155 87.4   783.37987    7  2  5   734.60778 86.2   783.37939
  6  2  5   745.48645 73.1   783.38477    7  2  5   734.61221 81.8   783.38382
  6  2  5   745.50239 88.0   783.40071    7  2  5   734.62846 73.9   783.40007
                                          8  4  5   698.51800 85.7   783.40162
  6  2  5   745.51888 41.5   783.41720    8  4  5   698.53327 84.3   783.41689
  6  2  5   745.56735 89.7   783.46567    7  2  5   734.69382 80.4   783.46543
  6  2  5   745.61334 82.9   783.51166    8  4  5   698.62714 23.2   783.51076
  6  2  5   745.63656 67.7   783.53488    7  2  5   734.76302 72.3   783.53463
  6  2  5   745.65473 79.1   783.55305    7  2  5   734.78218 77.2   783.55379
  6  2  5   745.66500 63.0   783.56332    8  4  5   698.67878 84.7   783.56240
  6  2  5   745.67784 31.5   783.57616    7  2  5   734.80401 63.0   783.57562
  6  2  5   745.69670 73.3   783.59502    7  2  5   734.82403 88.8   783.59564
  6  2  5   745.74279 43.9   783.64111    8  4  5   698.75827 72.8   783.64189
  7  2  5   732.96464 83.8   781.73625    8  4  5   696.85276 46.1   781.73638
  7  2  5   732.98234 31.1   781.75395    8  4  5   696.87062 71.1   781.75424
  7  2  5   733.00351 85.3   781.77512    8  4  5   696.89130 63.7   781.77492
  7  2  5   733.00834 65.9   781.77995    8  4  5   696.89705 82.4   781.78067
  7  2  5   733.01298 65.1   781.78459    8  4  5   696.90195 87.3   781.78557
  7  2  5   733.05664 71.8   781.82825    8  4  5   696.94400 52.1   781.82762
  7  2  5   733.06872 49.5   781.84033    8  4  5   696.95622 84.6   781.83984
  7  2  5   733.10202 73.4   781.87363    8  4  5   696.98902 51.9   781.87264
  7  2  5   733.15172 66.5   781.92333    8  4  5   697.03950 56.5   781.92312
  7  2  5   733.18312 87.0   781.95473    8  4  5   697.07107 12.4   781.95469
  7  2  5   733.42034 89.3   782.19195    8  4  5   697.30903 88.3   782.19265
  7  2  5   733.42776 17.3   782.19937    8  4  5   697.31607 55.4   782.19969
  7  2  5   733.46697 72.3   782.23858    8  4  5   697.35413 73.0   782.23775
  7  2  5   733.49745 86.2   782.26906    8  4  5   697.38540 16.4   782.26902
  7  2  5   733.58303 71.6   782.35464    8  4  5   697.47076 52.2   782.35438
  7  2  5   733.58786 18.7   782.35947    8  4  5   697.47670 87.9   782.36032
  7  2  5   733.62142 83.1   782.39303    8  4  5   697.50908 80.0   782.39270
  7  2  5   733.65997 70.2   782.43158    8  4  5   697.54780 60.0   782.43142
  7  2  5   733.71131 67.0   782.48292    8  4  5   697.60014 45.8   782.48376
  7  2  5   733.82182 57.9   782.59343    8  4  5   697.70923 64.8   782.59285
  7  2  5   733.84240 53.8   782.61401    8  4  5   697.73087 86.7   782.61449
  7  2  5   733.89158 82.8   782.66319    8  4  5   697.77900 20.6   782.66262
  7  2  5   733.98547 74.2   782.75708    8  4  5   697.87304 85.5   782.75666
  7  2  5   734.05231 84.6   782.82392    8  4  5   697.93990 83.1   782.82352
  7  2  5   734.11467 64.9   782.88628    8  4  5   698.00236 69.2   782.88598
  7  2  5   734.19386 79.1   782.96547    8  4  5   698.08133 19.6   782.96495
  7  2  5   734.23511 67.4   783.00672    8  4  5   698.12402 79.6   783.00764
  7  2  5   734.32517 87.1   783.09678    8  4  5   698.21389 81.6   783.09751
  7  2  5   734.35418 74.2   783.12579    8  4  5   698.24316 87.5   783.12678
  7  2  5   734.38235 76.2   783.15396    8  4  5   698.26937 72.3   783.15299
  7  2  5   734.40834 74.8   783.17995    8  4  5   698.29669 89.2   783.18031
  7  2  5   734.58092 82.5   783.35253    8  4  5   698.46853 89.0   783.35215
  7  2  5   734.67367 24.0   783.44528    8  4  5   698.56237 77.4   783.44599
  7  2  5   734.71182 83.9   783.48343    8  4  5   698.59979 68.6   783.48341
  7  2  5   734.71756 17.0   783.48917    8  4  5   698.60563 78.8   783.48925
  7  2  5   734.75885 87.8   783.53046    8  4  5   698.64631 79.0   783.52993
  7  2  5   734.77381 88.9   783.54542    8  4  5   698.66142 31.3   783.54504

 Searching   8  3  6 near    793.93746
 No   1:   7  2  6       47.61722  reg   745.320 -   747.320
 No   2:   8  2  6       60.50331  reg   732.434 -   734.434
 No   3:   9  4  6       97.57445  reg   695.363 -   697.363
  7  2  6   745.32529 65.2   792.94251    9  4  6   695.36707 88.0   792.94152
  7  2  6   745.33911 69.0   792.95633    9  4  6   695.38195 84.3   792.95640
  7  2  6   745.35812 36.3   792.97534    9  4  6   695.40101 86.9   792.97546
  7  2  6   745.38676 82.6   793.00398    8  2  6   732.50050 66.4   793.00381
  7  2  6   745.39226 68.7   793.00948    8  2  6   732.50673 86.9   793.01004
  7  2  6   745.41077 37.3   793.02799    9  4  6   695.45327 32.1   793.02772
  7  2  6   745.42638 87.3   793.04360    8  2  6   732.54076 31.3   793.04407
  7  2  6   745.45952 73.9   793.07674    8  2  6   732.57344 70.5   793.07675
  7  2  6   745.47618 89.4   793.09340    8  2  6   732.58941 58.5   793.09272
  7  2  6   745.54559 62.5   793.16281    8  2  6   732.66025 81.8   793.16356
  7  2  6   745.56735 89.7   793.18457    8  2  6   732.68072 56.9   793.18403
  7  2  6   745.69670 73.3   793.31392    8  2  6   732.81080 62.6   793.31411
  7  2  6   745.73371 32.9   793.35093    8  2  6   732.84728 51.1   793.35059
                                          9  4  6   695.77556 87.1   793.35001
  7  2  6   745.75262 87.4   793.36984    8  2  6   732.86664 57.0   793.36995
                                          9  4  6   695.79606 83.4   793.37051
  7  2  6   745.80048 59.5   793.41770    9  4  6   695.84404 67.0   793.41849
  7  2  6   745.81792 87.1   793.43514    8  2  6   732.93162 13.0   793.43493
  7  2  6   745.85048 77.6   793.46770    8  2  6   732.96464 83.8   793.46795
  7  2  6   745.86367 86.9   793.48089    8  2  6   732.97737 89.5   793.48068
  7  2  6   745.86870 88.7   793.48592    8  2  6   732.98234 31.1   793.48565
  7  2  6   745.90005 83.9   793.51727    8  2  6   733.01298 65.1   793.51629
                                          9  4  6   695.94313 83.4   793.51758
  7  2  6   745.91568 88.9   793.53290    9  4  6   695.95930 31.6   793.53375
  7  2  6   745.98473 83.7   793.60195    9  4  6   696.02679 76.0   793.60124
  7  2  6   746.02315 59.5   793.64037    8  2  6   733.13665 77.7   793.63996
  7  2  6   746.03277 46.2   793.64999    9  4  6   696.07471 89.8   793.64916
  7  2  6   746.05857 33.5   793.67579    8  2  6   733.17194 88.8   793.67525
  7  2  6   746.07431 73.3   793.69153    8  2  6   733.18804 87.3   793.69135
  7  2  6   746.10319 82.5   793.72041    9  4  6   696.14514 88.7   793.71959
  7  2  6   746.11911 79.1   793.73633    8  2  6   733.23357 87.9   793.73688
                                          9  4  6   696.16258 74.4   793.73703
  7  2  6   746.15411 75.5   793.77133    9  4  6   696.19590 33.9   793.77035
  7  2  6   746.16094 88.4   793.77816    8  2  6   733.27567 81.0   793.77898
  7  2  6   746.17246 63.1   793.78968    8  2  6   733.28677 62.7   793.79008
  7  2  6   746.35911 78.7   793.97633    8  2  6   733.47341 84.2   793.97672
                                          9  4  6   696.40124 88.5   793.97569
  7  2  6   746.42773 77.7   794.04495    8  2  6   733.54143 45.9   794.04474
  7  2  6   746.43354 35.5   794.05076    8  2  6   733.54679 21.9   794.05010
  7  2  6   746.45328 86.9   794.07050    9  4  6   696.49595 80.3   794.07040
  7  2  6   746.45833 86.6   794.07555    9  4  6   696.50161 52.9   794.07606
  7  2  6   746.47987 67.4   794.09709    8  2  6   733.59288 75.4   794.09619
  7  2  6   746.51356 87.1   794.13078    8  2  6   733.62711 70.5   794.13042
  7  2  6   746.51881 36.8   794.13603    9  4  6   696.56237 69.0   794.13682
  7  2  6   746.52411 36.3   794.14133    9  4  6   696.56764 77.0   794.14209
  7  2  6   746.52984 74.2   794.14706    8  2  6   733.64446 81.0   794.14777
                                          9  4  6   696.57265 88.3   794.14710
  7  2  6   746.53535 81.4   794.15257    8  2  6   733.64996 65.4   794.15327
  7  2  6   746.54197 10.8   794.15919    8  2  6   733.65529 83.0   794.15860
  7  2  6   746.61139 68.2   794.22861    8  2  6   733.72555 81.6   794.22886
  7  2  6   746.61802 88.4   794.23524    8  2  6   733.73117 73.6   794.23448
  7  2  6   746.63417 88.4   794.25139    8  2  6   733.74790 77.6   794.25121
  7  2  6   746.71528 73.6   794.33250    8  2  6   733.82843 61.5   794.33174
  7  2  6   746.72054 72.5   794.33776    8  2  6   733.83515 86.0   794.33846
  7  2  6   746.73489 81.0   794.35211    8  2  6   733.84863 62.6   794.35194
  7  2  6   746.74378 83.5   794.36100    8  2  6   733.85779 83.3   794.36110
  7  2  6   746.76122 24.1   794.37844    9  4  6   696.80362 48.7   794.37807
  7  2  6   746.78352 35.5   794.40074    9  4  6   696.82653 34.6   794.40098
  7  2  6   746.80988 88.3   794.42710    9  4  6   696.85276 46.1   794.42721
  7  2  6   746.83396 63.0   794.45118    8  2  6   733.94755 72.2   794.45086
  7  2  6   746.83908 50.1   794.45630    8  2  6   733.95334 57.1   794.45665
  7  2  6   746.85743 78.0   794.47465    8  2  6   733.97048 68.1   794.47379
  7  2  6   746.89859 80.8   794.51581    8  2  6   734.01291 86.2   794.51622
  7  2  6   746.97282 85.0   794.59004    9  4  6   697.01655 49.4   794.59100
  7  2  6   746.98419 55.8   794.60141    9  4  6   697.02716 82.3   794.60161
  7  2  6   747.02850 14.4   794.64572    9  4  6   697.07107 12.4   794.64552
  7  2  6   747.03563 42.0   794.65285    9  4  6   697.07913 61.8   794.65358
  7  2  6   747.07445 46.0   794.69167    8  2  6   734.18827 68.2   794.69159
                                          9  4  6   697.11715 77.0   794.69160
  7  2  6   747.07965 41.6   794.69687    8  2  6   734.19386 79.1   794.69717
  7  2  6   747.16043 62.9   794.77765    9  4  6   697.20394 67.6   794.77839
  7  2  6   747.24078 75.0   794.85800    8  2  6   734.35418 74.2   794.85749
                                          9  4  6   697.28424 72.6   794.85869
  7  2  6   747.27232 52.9   794.88954    9  4  6   697.31607 55.4   794.89052
  8  2  6   732.55351 75.9   793.05682    9  4  6   695.48242 63.7   793.05687
  8  2  6   732.58941 58.5   793.09272    9  4  6   695.51743 51.8   793.09188
  8  2  6   732.59780 13.3   793.10111    9  4  6   695.52759 76.7   793.10204
  8  2  6   732.63105 73.8   793.13436    9  4  6   695.56010 82.2   793.13455
  8  2  6   732.66025 81.8   793.16356    9  4  6   695.59004 88.8   793.16449
  8  2  6   732.66494 84.0   793.16825    9  4  6   695.59463 87.7   793.16908
  8  2  6   732.68615 62.8   793.18946    9  4  6   695.61582 56.2   793.19027
  8  2  6   732.72538 70.4   793.22869    9  4  6   695.65389 80.2   793.22834
  8  2  6   732.79961 83.8   793.30292    9  4  6   695.72787 72.2   793.30232
  8  2  6   732.84728 51.1   793.35059    9  4  6   695.77556 87.1   793.35001
  8  2  6   732.86664 57.0   793.36995    9  4  6   695.79606 83.4   793.37051
  8  2  6   732.95645 74.2   793.45976    9  4  6   695.88624 82.9   793.46069
  8  2  6   733.03615 55.9   793.53946    9  4  6   695.96514 82.8   793.53958
  8  2  6   733.05664 71.8   793.55995    9  4  6   695.98526 61.4   793.55971
  8  2  6   733.13124 56.6   793.63455    9  4  6   696.06008 71.3   793.63453
  8  2  6   733.18312 87.0   793.68643    9  4  6   696.11267 78.4   793.68712
  8  2  6   733.23357 87.9   793.73688    9  4  6   696.16258 74.4   793.73703
  8  2  6   733.24848 89.5   793.75179    9  4  6   696.17709 70.1   793.75154
  8  2  6   733.42034 89.3   793.92365    9  4  6   696.34921 83.6   793.92366
  8  2  6   733.45575 72.2   793.95906    9  4  6   696.38450 37.9   793.95895
  8  2  6   733.51229 87.7   794.01560    9  4  6   696.44120 88.5   794.01565
  8  2  6   733.51704 87.7   794.02035    9  4  6   696.44677 50.4   794.02122
  8  2  6   733.52382 78.7   794.02713    9  4  6   696.45223 42.9   794.02668
  8  2  6   733.64446 81.0   794.14777    9  4  6   696.57265 88.3   794.14710
  8  2  6   733.69035 70.4   794.19366    9  4  6   696.61983 70.4   794.19428
  8  2  6   733.72066 47.3   794.22397    9  4  6   696.64993 62.7   794.22438
  8  2  6   733.79480 84.0   794.29811    9  4  6   696.72289 11.4   794.29734
  8  2  6   733.90320 74.6   794.40651    9  4  6   696.83205 78.6   794.40650
  8  2  6   733.96225 79.3   794.46556    9  4  6   696.89130 63.7   794.46575
  8  2  6   734.00145 84.7   794.50476    9  4  6   696.93112 65.8   794.50557
  8  2  6   734.05231 84.6   794.55562    9  4  6   696.98147 78.3   794.55592
  8  2  6   734.08421 30.7   794.58752    9  4  6   697.01231 86.5   794.58676
  8  2  6   734.18827 68.2   794.69159    9  4  6   697.11715 77.0   794.69160
