Range    : 1.000
Accuracy : 0.001
Control file  : C2HD3gr   
Spectrum file : w         

 Searching   2  2  0 near    776.78833
 No   1:   1  1  0        3.63042  reg   772.158 -   774.158
 No   2:   3  3  0       27.70560  reg   748.083 -   750.083

 Searching   3  2  1 near    781.02892
 No   1:   2  1  1        6.60191  reg   773.427 -   775.427
 No   2:   3  3  1       27.70521  reg   752.324 -   754.324
 No   3:   4  3  1       33.32670  reg   746.702 -   748.702
  2  1  1   773.80542 71.6   780.40733    4  3  1   747.08084 90.0   780.40754
  2  1  1   774.77946 84.1   781.38137    3  3  1   753.67606 84.3   781.38127
  2  1  1   775.35133 72.4   781.95324    4  3  1   748.62623 88.8   781.95293
  3  3  1   753.83529 87.0   781.54050    4  3  1   748.21454 84.3   781.54124
  3  3  1   753.89468 86.5   781.59989    4  3  1   748.27408 88.2   781.60078
  3  3  1   754.03991 90.0   781.74512    4  3  1   748.41820 62.7   781.74490

 Searching   4  2  2 near    786.72109
 No   1:   3  1  2       11.05245  reg   774.669 -   776.669
 No   2:   4  3  2       33.32401  reg   752.397 -   754.397
 No   3:   5  3  2       40.36522  reg   745.356 -   747.356
  3  1  2   776.63525 61.7   787.68770    4  3  2   754.36331 88.9   787.68732
  4  3  2   752.81665 86.3   786.14066    5  3  2   745.77588 84.9   786.14110
  4  3  2   752.85063 89.2   786.17464    5  3  2   745.80898 44.5   786.17420
  4  3  2   753.47645 87.5   786.80046    5  3  2   746.43479 87.5   786.80001
  4  3  2   754.19266 64.1   787.51667    5  3  2   747.15053 58.5   787.51575
  4  3  2   754.24516 88.3   787.56917    5  3  2   747.20368 67.6   787.56890

 Searching   5  2  3 near    793.89272
 No   1:   4  1  3       16.97345  reg   775.919 -   777.919
 No   2:   5  3  3       40.35448  reg   752.538 -   754.538
 No   3:   6  3  3       48.83140  reg   744.061 -   746.061
  4  1  3   776.45327 80.2   793.42672    6  3  3   744.59627 62.0   793.42767
  5  3  3   752.83982 24.2   793.19430    6  3  3   744.36364 89.6   793.19504
  5  3  3   753.83529 87.0   794.18977    6  3  3   745.35834 87.2   794.18974
  5  3  3   754.52522 81.7   794.87970    6  3  3   746.04831 66.0   794.87971

 Searching   6  2  4 near    802.57011
 No   1:   5  1  4       24.35254  reg   777.218 -   779.218
 No   2:   6  3  4       48.79940  reg   752.771 -   754.771
 No   3:   7  3  4       58.73950  reg   742.831 -   744.831
  5  1  4   777.28626 16.6   801.63880    6  3  4   752.83982 24.2   801.63922
  5  1  4   778.06017 79.6   802.41271    7  3  4   743.67377 80.0   802.41327
  5  1  4   778.61943 74.8   802.97197    7  3  4   744.23151 88.5   802.97101
  5  1  4   778.80412 80.2   803.15666    6  3  4   754.35741 55.3   803.15681
  5  1  4   779.12063 82.4   803.47317    6  3  4   754.67393 81.3   803.47333
  6  3  4   753.83529 87.0   802.63469    7  3  4   743.89492 45.3   802.63442
  6  3  4   753.87491 61.1   802.67431    7  3  4   743.93501 67.7   802.67451
  6  3  4   754.33694 61.4   803.13634    7  3  4   744.39645 29.4   803.13595
  6  3  4   754.53114 75.0   803.33054    7  3  4   744.59015 84.9   803.32965
  6  3  4   754.66748 90.0   803.46688    7  3  4   744.72756 88.8   803.46706

 Searching   7  2  5 near    812.77161
 No   1:   6  1  5       33.17281  reg   778.599 -   780.599
 No   2:   7  3  5       58.66042  reg   753.111 -   755.111
 No   3:   8  3  5       70.10844  reg   741.663 -   743.663
  6  1  5   779.77471 77.7   812.94752    7  3  5   754.28807 61.8   812.94849
  6  1  5   780.08829 74.6   813.26110    8  3  5   743.15167  2.0   813.26011
  6  1  5   780.09796 63.8   813.27077    7  3  5   754.60943 80.9   813.26985
                                          8  3  5   743.16220 89.1   813.27064
  6  1  5   780.40279 47.0   813.57560    7  3  5   754.91577 89.4   813.57619
  7  3  5   753.89468 86.5   812.55510    8  3  5   742.44732 72.0   812.55576
  7  3  5   754.59871 85.7   813.25913    8  3  5   743.15167  2.0   813.26011
  7  3  5   754.60943 80.9   813.26985    8  3  5   743.16220 89.1   813.27064
