Range    : 0.500
Accuracy : 0.001
Control file  : C2HD3gr   
Spectrum file : s         

 Searching   4  4  0 near   1047.31320
 No   1:   3  3  0       27.70560  reg  1019.108 -  1020.108
 No   2:   5  5  0       74.60328  reg   972.210 -   973.210
  3  3  0  1019.68964 75.4  1047.39524    5  5  0   972.79189 43.9  1047.39517

 Searching   5  4  1 near   1054.33487
 No   1:   4  3  1       33.32670  reg  1020.508 -  1021.508
 No   2:   5  5  1       74.60328  reg   979.232 -   980.232
 No   3:   6  5  1       83.02685  reg   970.808 -   971.808
  4  3  1  1020.52404 67.8  1053.85074    5  5  1   979.24706 88.3  1053.85034
  4  3  1  1020.60114 89.4  1053.92784    5  5  1   979.32380 88.6  1053.92708
  4  3  1  1020.84191 86.6  1054.16861    5  5  1   979.56511 82.2  1054.16839
  4  3  1  1020.85281 84.5  1054.17951    5  5  1   979.57655 55.4  1054.17983
  4  3  1  1021.02940 87.1  1054.35610    6  5  1   971.32924 76.6  1054.35609
  4  3  1  1021.19075 74.8  1054.51745    6  5  1   971.49109 49.5  1054.51795
  4  3  1  1021.28021 62.8  1054.60691    5  5  1   980.00413 89.9  1054.60741
                                          6  5  1   971.58012 75.6  1054.60697
  4  3  1  1021.53666 63.3  1054.86336    5  5  1   980.26073 89.6  1054.86401
  5  5  1   979.56989 78.4  1054.17317    6  5  1   971.14704 47.5  1054.17389
  5  5  1   980.00413 89.9  1054.60741    6  5  1   971.58012 75.6  1054.60697

 Searching   6  4  2 near   1062.76837
 No   1:   5  3  2       40.36522  reg  1021.903 -  1022.903
 No   2:   6  5  2       83.02684  reg   979.242 -   980.242
 No   3:   7  5  2       92.86055  reg   969.408 -   970.408
  5  3  2  1022.18121 76.2  1062.54643    6  5  2   979.51861 76.9  1062.54545
  5  3  2  1022.28884 65.0  1062.65406    7  5  2   969.79286 26.8  1062.65341
  5  3  2  1022.63058 87.5  1062.99580    6  5  2   979.96914 86.3  1062.99598
  6  5  2   979.36809 85.4  1062.39493    7  5  2   969.53456 89.9  1062.39511
  6  5  2   979.39084 37.4  1062.41768    7  5  2   969.55701 75.8  1062.41756
  6  5  2   979.42636 50.3  1062.45320    7  5  2   969.59337 64.7  1062.45392

 Searching   7  4  3 near   1072.61808
 No   1:   6  3  3       48.83140  reg  1023.287 -  1024.287
 No   2:   7  5  3       92.86053  reg   979.258 -   980.258
 No   3:   8  5  3      104.10727  reg   968.011 -   969.011
  6  3  3  1023.39200 81.9  1072.22340    8  5  3   968.11642 81.7  1072.22369
  7  5  3   979.39084 37.4  1072.25137    8  5  3   968.14507 83.4  1072.25234
  7  5  3   979.57655 55.4  1072.43709    8  5  3   968.33057 39.3  1072.43784

 Searching   8  4  4 near   1083.88948
 No   1:   7  3  4       58.73950  reg  1024.650 -  1025.650
 No   2:   8  5  4      104.10718  reg   979.282 -   980.282
 No   3:   9  5  4      116.77037  reg   966.619 -   967.619
  7  3  4  1024.79428 59.7  1083.53378    8  5  4   979.42636 50.3  1083.53354
  7  3  4  1024.83376 69.4  1083.57326    9  5  4   966.80284 87.6  1083.57321
  7  3  4  1025.32210 87.6  1084.06160    9  5  4   967.29158 26.7  1084.06195
  8  5  4   980.12223 85.4  1084.22941    9  5  4   967.45974 87.5  1084.23011

 Searching   9  4  5 near   1096.58956
 No   1:   8  3  5       70.10844  reg  1025.981 -  1026.981
 No   2:   9  5  5      116.77004  reg   979.320 -   980.320
 No   3:  10  5  5      130.85372  reg   965.236 -   966.236
  8  3  5  1026.03619 75.4  1096.14463    9  5  5   979.37523 39.3  1096.14527
  8  3  5  1026.05281 73.7  1096.16125    9  5  5   979.39084 37.4  1096.16088
                                         10  5  5   965.30832 89.5  1096.16204
  8  3  5  1026.09410 66.1  1096.20254    9  5  5   979.43339 84.1  1096.20343
  8  3  5  1026.26345 69.8  1096.37189    9  5  5   979.60169 83.1  1096.37173
                                         10  5  5   965.51885 24.7  1096.37257
  8  3  5  1026.36359 89.5  1096.47203   10  5  5   965.61888 83.3  1096.47260
  8  3  5  1026.74625 62.2  1096.85469   10  5  5   966.00136 87.8  1096.85508
  8  3  5  1026.77653 59.7  1096.88497   10  5  5   966.03037 47.2  1096.88409
  9  5  5   979.60169 83.1  1096.37173   10  5  5   965.51885 24.7  1096.37257
