Range    : 1.000
Accuracy : 0.001
Control file  : C2HD3gr   
Spectrum file : s         

 Searching   3  3  0 near    789.20560
 No   1:   2  2  0       12.78833  reg   775.417 -   777.417
 No   2:   4  4  0       48.31320  reg   739.892 -   741.892
  2  2  0   775.52981 63.5   788.31814    4  4  0   740.00549 33.0   788.31869
  2  2  0   775.57710 81.2   788.36543    4  4  0   740.05314 71.7   788.36634
  2  2  0   775.75559 88.9   788.54392    4  4  0   740.23055 58.4   788.54375
  2  2  0   775.77431 82.2   788.56264    4  4  0   740.24979 86.1   788.56299
  2  2  0   775.77969 66.3   788.56802    4  4  0   740.25564 64.3   788.56884
  2  2  0   775.87351 85.9   788.66184    4  4  0   740.34872 79.8   788.66192
  2  2  0   776.07201 52.8   788.86034    4  4  0   740.54814 45.7   788.86134
  2  2  0   776.12718 87.0   788.91551    4  4  0   740.60203 78.3   788.91523
  2  2  0   776.18926 84.7   788.97759    4  4  0   740.66399 61.7   788.97719
  2  2  0   776.23703 76.4   789.02536    4  4  0   740.71281 45.9   789.02601
  2  2  0   776.24333 68.8   789.03166    4  4  0   740.71797 56.6   789.03117
  2  2  0   776.24821 38.0   789.03654    4  4  0   740.72317 79.2   789.03637
  2  2  0   776.31908 73.1   789.10741    4  4  0   740.79446 77.8   789.10766
  2  2  0   776.32869 27.8   789.11702    4  4  0   740.80359 42.7   789.11679
  2  2  0   776.34875 86.9   789.13708    4  4  0   740.82422 32.6   789.13742
  2  2  0   776.43721 89.9   789.22554    4  4  0   740.91214 40.5   789.22534
  2  2  0   776.49950 83.0   789.28783    4  4  0   740.97464 61.6   789.28784
  2  2  0   776.50898 88.0   789.29731    4  4  0   740.98420 78.3   789.29740
  2  2  0   776.64555 81.7   789.43388    4  4  0   741.12074 83.7   789.43394
  2  2  0   776.68743 85.0   789.47576    4  4  0   741.16225 21.5   789.47545
  2  2  0   776.74217 84.9   789.53050    4  4  0   741.21631 52.7   789.52951
  2  2  0   776.75696 89.3   789.54529    4  4  0   741.23159 70.5   789.54479
  2  2  0   776.80873 79.7   789.59706    4  4  0   741.28391 62.9   789.59711
  2  2  0   776.84570 50.9   789.63403    4  4  0   741.32031 51.3   789.63351
  2  2  0   777.04012 86.9   789.82845    4  4  0   741.51564 86.2   789.82884
  2  2  0   777.08120 89.8   789.86953    4  4  0   741.55579 79.0   789.86899
  2  2  0   777.16637 24.4   789.95470    4  4  0   741.64133 88.0   789.95453
  2  2  0   777.17214 61.1   789.96047    4  4  0   741.64715 63.0   789.96035
  2  2  0   777.18346 89.5   789.97179    4  4  0   741.65838 83.2   789.97158
  2  2  0   777.22375 65.7   790.01208    4  4  0   741.69826 82.0   790.01146
  2  2  0   777.22893 56.9   790.01726    4  4  0   741.70472 50.4   790.01792
  2  2  0   777.26671 84.0   790.05504    4  4  0   741.74257 66.6   790.05577
  2  2  0   777.27167 89.8   790.06000    4  4  0   741.74752 76.0   790.06072
  2  2  0   777.29449 77.2   790.08282    4  4  0   741.77053 78.0   790.08373
  2  2  0   777.30079 37.1   790.08912    4  4  0   741.77642 68.5   790.08962
  2  2  0   777.41137 49.2   790.19970    4  4  0   741.88701 77.7   790.20021

 Searching   4  3  1 near    794.82670
 No   1:   3  2  1       17.02892  reg   776.798 -   778.798
 No   2:   4  4  1       48.31318  reg   745.514 -   747.514
 No   3:   5  4  1       55.33487  reg   738.492 -   740.492
  3  2  1   776.79554 62.2   793.82446    4  4  1   745.51145 72.1   793.82463
  3  2  1   776.80368 75.4   793.83260    4  4  1   745.51888 41.5   793.83206
  3  2  1   776.87357 86.5   793.90249    5  4  1   738.56727 83.8   793.90214
  3  2  1   776.92200 85.6   793.95092    5  4  1   738.61589 29.7   793.95076
  3  2  1   776.98744 72.5   794.01636    4  4  1   745.70284 64.8   794.01602
  3  2  1   777.01224 75.8   794.04116    4  4  1   745.72735 76.2   794.04053
  3  2  1   777.04012 86.9   794.06904    4  4  1   745.75612 89.7   794.06930
  3  2  1   777.10873 45.8   794.13765    4  4  1   745.82403 50.0   794.13721
  3  2  1   777.18346 89.5   794.21238    4  4  1   745.90005 83.9   794.21323
  3  2  1   777.20993 82.9   794.23885    4  4  1   745.92489 87.6   794.23807
                                          5  4  1   738.90494 41.2   794.23981
  3  2  1   777.22375 65.7   794.25267    4  4  1   745.93936 83.9   794.25254
  3  2  1   777.22893 56.9   794.25785    4  4  1   745.94410 68.3   794.25728
  3  2  1   777.25817 71.4   794.28709    5  4  1   738.95320 78.6   794.28807
  3  2  1   777.30079 37.1   794.32971    5  4  1   738.99466 49.0   794.32953
  3  2  1   777.30759 88.4   794.33651    4  4  1   746.02315 59.5   794.33633
  3  2  1   777.31761 87.6   794.34653    4  4  1   746.03277 46.2   794.34595
  3  2  1   777.35455 86.9   794.38347    4  4  1   746.07103 72.2   794.38421
  3  2  1   777.36429 88.5   794.39321    4  4  1   746.08050 81.9   794.39368
  3  2  1   777.38980 88.8   794.41872    5  4  1   739.08457 84.0   794.41944
  3  2  1   777.39919 80.5   794.42811    5  4  1   739.09402 86.3   794.42889
  3  2  1   777.40542 76.0   794.43434    5  4  1   739.09969 50.7   794.43456
  3  2  1   777.41137 49.2   794.44029    5  4  1   739.10459 74.2   794.43946
  3  2  1   777.43430 80.3   794.46322    5  4  1   739.12865 77.2   794.46352
  3  2  1   777.50560 87.3   794.53452    5  4  1   739.19930 14.7   794.53417
  3  2  1   777.50984 89.9   794.53876    5  4  1   739.20450 68.0   794.53937
  3  2  1   777.55691 88.2   794.58583    5  4  1   739.25108 63.2   794.58595
  3  2  1   777.56136 84.9   794.59028    5  4  1   739.25581 47.2   794.59068
  3  2  1   777.57193 59.5   794.60085    4  4  1   746.28765 46.8   794.60083
  3  2  1   777.58672 89.7   794.61564    4  4  1   746.30287 19.8   794.61605
  3  2  1   777.66127 86.4   794.69019    4  4  1   746.37797 80.3   794.69115
  3  2  1   777.67922 87.0   794.70814    5  4  1   739.37285 53.6   794.70772
  3  2  1   777.68792 40.1   794.71684    5  4  1   739.38181 38.5   794.71668
  3  2  1   777.70222 82.6   794.73114    5  4  1   739.39631 46.3   794.73118
  3  2  1   777.70833 68.3   794.73725    5  4  1   739.40271 66.1   794.73758
  3  2  1   777.74777 89.5   794.77669    4  4  1   746.46349 69.7   794.77667
                                          5  4  1   739.44118 77.6   794.77605
  3  2  1   777.76405 89.6   794.79297    4  4  1   746.47987 67.4   794.79305
  3  2  1   777.81899 60.0   794.84791    4  4  1   746.53535 81.4   794.84853
  3  2  1   777.85118 87.8   794.88010    4  4  1   746.56624 70.0   794.87942
  3  2  1   777.85675 37.1   794.88567    4  4  1   746.57191 85.0   794.88509
  3  2  1   777.86655 46.3   794.89547    5  4  1   739.56136 71.6   794.89623
  3  2  1   777.88585 83.7   794.91477    5  4  1   739.57966 16.4   794.91453
  3  2  1   777.92956 81.1   794.95848    4  4  1   746.64520 79.3   794.95838
  3  2  1   777.93449 88.9   794.96341    4  4  1   746.65038 83.4   794.96356
  3  2  1   777.94466 79.9   794.97358    4  4  1   746.66034 60.5   794.97352
                                          5  4  1   739.63919 88.1   794.97406
  3  2  1   777.94943 77.7   794.97835    4  4  1   746.66521 38.4   794.97839
                                          5  4  1   739.64378 78.5   794.97865
  3  2  1   777.98454 82.6   795.01346    4  4  1   746.69992 87.5   795.01310
  3  2  1   778.00514 64.6   795.03406    4  4  1   746.72054 72.5   795.03372
  3  2  1   778.01136 89.5   795.04028    5  4  1   739.70571 64.7   795.04058
  3  2  1   778.02867 43.4   795.05759    4  4  1   746.74378 83.5   795.05696
  3  2  1   778.04097 63.4   795.06989    5  4  1   739.73602 87.3   795.07089
  3  2  1   778.06729 77.6   795.09621    4  4  1   746.78352 35.5   795.09670
                                          5  4  1   739.76048 72.5   795.09535
  3  2  1   778.07191 55.9   795.10083    5  4  1   739.76645 88.0   795.10132
  3  2  1   778.12081 44.5   795.14973    5  4  1   739.81565 39.5   795.15052
  3  2  1   778.15758 43.9   795.18650    5  4  1   739.85092 13.2   795.18579
  3  2  1   778.18890 88.4   795.21782    4  4  1   746.90383 71.7   795.21701
  3  2  1   778.20225 84.2   795.23117    4  4  1   746.91728 76.0   795.23046
  3  2  1   778.31947 43.2   795.34839    4  4  1   747.03563 42.0   795.34881
  3  2  1   778.32745 16.7   795.35637    5  4  1   740.02127 12.1   795.35614
  3  2  1   778.36008 11.1   795.38900    5  4  1   740.05314 71.7   795.38801
  3  2  1   778.40950 88.9   795.43842    4  4  1   747.12435 81.4   795.43753
  3  2  1   778.49487 88.9   795.52379    5  4  1   740.18919 80.2   795.52406
  3  2  1   778.56185 68.4   795.59077    5  4  1   740.25564 64.3   795.59051
  3  2  1   778.56801 80.7   795.59693    5  4  1   740.26170 41.4   795.59657
  3  2  1   778.57653 66.1   795.60545    5  4  1   740.27124 83.2   795.60611
  3  2  1   778.59885 81.5   795.62777    4  4  1   747.31559 83.8   795.62877
                                          5  4  1   740.29218 11.7   795.62705
  3  2  1   778.69760 67.7   795.72652    4  4  1   747.41323 37.8   795.72641
  3  2  1   778.70370 81.3   795.73262    4  4  1   747.41872 83.0   795.73190
  3  2  1   778.70711 83.7   795.73603    4  4  1   747.42324 47.0   795.73642
  3  2  1   778.72660 17.1   795.75552    4  4  1   747.44159 73.7   795.75477
  4  4  1   745.61334 82.9   793.92652    5  4  1   738.59180 55.7   793.92667
  4  4  1   745.69670 73.3   794.00988    5  4  1   738.67402 80.0   794.00889
  4  4  1   745.73371 32.9   794.04689    5  4  1   738.71205 89.6   794.04692
  4  4  1   745.74279 43.9   794.05597    5  4  1   738.72155 62.6   794.05642
  4  4  1   745.79555 75.5   794.10873    5  4  1   738.77304 73.1   794.10791
  4  4  1   745.80048 59.5   794.11366    5  4  1   738.77874 80.3   794.11361
  4  4  1   745.81792 87.1   794.13110    5  4  1   738.79611 78.0   794.13098
  4  4  1   745.85048 77.6   794.16366    5  4  1   738.82957 88.3   794.16444
  4  4  1   745.86367 86.9   794.17685    5  4  1   738.84252 88.1   794.17739
  4  4  1   745.98914 68.1   794.30232    5  4  1   738.96735 55.3   794.30222
  4  4  1   745.99471 34.2   794.30789    5  4  1   738.97255 84.4   794.30742
  4  4  1   746.07103 72.2   794.38421    5  4  1   739.04974 88.0   794.38461
  4  4  1   746.16094 88.4   794.47412    5  4  1   739.13907 44.7   794.47394
  4  4  1   746.20758 85.4   794.52076    5  4  1   739.18533 51.1   794.52020
  4  4  1   746.33744 79.6   794.65062    5  4  1   739.31544 57.0   794.65031
  4  4  1   746.37519 80.5   794.68837    5  4  1   739.35321 54.9   794.68808
  4  4  1   746.38454 36.5   794.69772    5  4  1   739.36330 63.9   794.69817
  4  4  1   746.46349 69.7   794.77667    5  4  1   739.44118 77.6   794.77605
  4  4  1   746.50866 87.8   794.82184    5  4  1   739.48685 66.6   794.82172
  4  4  1   746.61139 68.2   794.92457    5  4  1   739.58950 57.2   794.92437
  4  4  1   746.66034 60.5   794.97352    5  4  1   739.63919 88.1   794.97406
  4  4  1   746.66521 38.4   794.97839    5  4  1   739.64378 78.5   794.97865
  4  4  1   746.93627 45.8   795.24945    5  4  1   739.91463 76.9   795.24950
  4  4  1   746.96289 47.8   795.27607    5  4  1   739.94187 81.9   795.27674
  4  4  1   747.01528 85.8   795.32846    5  4  1   739.99424 81.2   795.32911
  4  4  1   747.07445 46.0   795.38763    5  4  1   740.05314 71.7   795.38801
  4  4  1   747.09001 17.2   795.40319    5  4  1   740.06860 73.8   795.40347
  4  4  1   747.12435 81.4   795.43753    5  4  1   740.10235 83.0   795.43722
  4  4  1   747.27232 52.9   795.58550    5  4  1   740.24979 86.1   795.58466
  4  4  1   747.39063 20.9   795.70381    5  4  1   740.36803 34.8   795.70290
  4  4  1   747.43190 88.2   795.74508    5  4  1   740.41064 87.9   795.74551
  4  4  1   747.44672 78.6   795.75990    5  4  1   740.42431 21.3   795.75918

 Searching   5  3  2 near    801.86522
 No   1:   4  2  2       22.72108  reg   778.144 -   780.144
 No   2:   5  4  2       55.33476  reg   745.530 -   747.530
 No   3:   6  4  2       63.76837  reg   737.097 -   739.097
  4  2  2   778.13212 59.7   800.85320    5  4  2   745.51888 41.5   800.85364
  4  2  2   778.17870 84.3   800.89978    6  4  2   737.13200 64.4   800.90037
  4  2  2   778.27859 86.5   800.99967    5  4  2   745.66500 63.0   800.99976
                                          6  4  2   737.23031 84.2   800.99868
  4  2  2   778.31947 43.2   801.04055    6  4  2   737.27126 83.1   801.03963
  4  2  2   778.36596 81.7   801.08704    5  4  2   745.75262 87.4   801.08738
  4  2  2   778.37176 38.5   801.09284    6  4  2   737.32390 11.9   801.09227
  4  2  2   778.39965 74.2   801.12073    5  4  2   745.78572 82.3   801.12048
  4  2  2   778.40950 88.9   801.13058    5  4  2   745.79555 75.5   801.13031
  4  2  2   778.42847 41.1   801.14955    5  4  2   745.81510 87.3   801.14986
  4  2  2   778.44330 52.6   801.16438    5  4  2   745.82943 77.1   801.16419
  4  2  2   778.53273 56.4   801.25381    5  4  2   745.91938 82.1   801.25414
  4  2  2   778.56185 68.4   801.28293    6  4  2   737.51431 85.4   801.28268
  4  2  2   778.59885 81.5   801.31993    5  4  2   745.98473 83.7   801.31949
  4  2  2   778.68396 53.7   801.40504    5  4  2   746.07103 72.2   801.40579
  4  2  2   778.68827 62.8   801.40935    5  4  2   746.07431 73.3   801.40907
  4  2  2   778.72660 17.1   801.44768    5  4  2   746.11366 11.6   801.44842
  4  2  2   778.76013 89.1   801.48121    6  4  2   737.71347 12.2   801.48184
  4  2  2   778.78078 67.8   801.50186    6  4  2   737.73257 56.5   801.50094
  4  2  2   778.78609 52.2   801.50717    5  4  2   746.17246 63.1   801.50722
  4  2  2   778.79565 55.4   801.51673    6  4  2   737.74905 59.9   801.51742
  4  2  2   778.81542 72.1   801.53650    5  4  2   746.20261 87.1   801.53737
  4  2  2   778.84551 86.9   801.56659    5  4  2   746.23263 85.4   801.56739
  4  2  2   778.91232 87.1   801.63340    6  4  2   737.86538 85.0   801.63375
  4  2  2   778.95425 87.6   801.67533    6  4  2   737.90628 80.9   801.67465
  4  2  2   778.99731 76.0   801.71839    5  4  2   746.38454 36.5   801.71930
  4  2  2   779.00658 73.1   801.72766    6  4  2   737.95917 17.3   801.72754
  4  2  2   779.04696 89.7   801.76804    5  4  2   746.43354 35.5   801.76830
  4  2  2   779.05257 68.6   801.77365    5  4  2   746.43916 78.2   801.77392
  4  2  2   779.09547 84.8   801.81655    6  4  2   738.04757 50.6   801.81594
  4  2  2   779.09972 66.1   801.82080    5  4  2   746.48633 43.7   801.82109
  4  2  2   779.13862 61.3   801.85970    5  4  2   746.52411 36.3   801.85887
  4  2  2   779.14858 81.0   801.86966    5  4  2   746.53535 81.4   801.87011
  4  2  2   779.22481 82.9   801.94589    5  4  2   746.61139 68.2   801.94615
  4  2  2   779.29602 79.6   802.01710    6  4  2   738.24807 24.9   802.01644
  4  2  2   779.39818 15.8   802.11926    5  4  2   746.78352 35.5   802.11828
  4  2  2   779.40834 87.3   802.12942    6  4  2   738.36105 39.1   802.12942
  4  2  2   779.43284 74.7   802.15392    6  4  2   738.38557 65.1   802.15394
  4  2  2   779.44710 61.2   802.16818    5  4  2   746.83396 63.0   802.16872
  4  2  2   779.56422 73.0   802.28530    6  4  2   738.51675 51.5   802.28512
  4  2  2   779.57008 82.1   802.29116    5  4  2   746.95545 41.2   802.29021
  4  2  2   779.59779 88.9   802.31887    5  4  2   746.98419 55.8   802.31895
  4  2  2   779.62796 43.5   802.34904    5  4  2   747.01528 85.8   802.35004
  4  2  2   779.63342 79.8   802.35450    5  4  2   747.02025 89.7   802.35501
  4  2  2   779.71266 83.9   802.43374    6  4  2   738.66585 73.5   802.43422
  4  2  2   779.72069 57.8   802.44177    6  4  2   738.67402 80.0   802.44239
  4  2  2   779.73063 88.6   802.45171    5  4  2   747.11726 73.0   802.45202
  4  2  2   779.74930 82.5   802.47038    5  4  2   747.13481 61.3   802.46957
                                          6  4  2   738.70248 79.6   802.47085
  4  2  2   779.75487 48.6   802.47595    5  4  2   747.14019 65.3   802.47495
  4  2  2   779.81358 83.7   802.53466    6  4  2   738.76728 16.5   802.53565
  4  2  2   779.82003 64.7   802.54111    6  4  2   738.77304 73.1   802.54141
  4  2  2   779.82677 71.7   802.54785    6  4  2   738.77874 80.3   802.54711
  4  2  2   779.88635 19.7   802.60743    5  4  2   747.27232 52.9   802.60708
  4  2  2   779.95660 27.5   802.67768    5  4  2   747.34382 70.6   802.67858
                                          6  4  2   738.90997 43.5   802.67834
  4  2  2   779.98664 87.5   802.70772    6  4  2   738.93839 86.6   802.70676
  4  2  2   780.01621 74.6   802.73729    5  4  2   747.40222 84.5   802.73698
  4  2  2   780.12134 68.8   802.84242    5  4  2   747.50713 41.1   802.84189
                                          6  4  2   739.07321 87.0   802.84158
  4  2  2   780.13406 84.9   802.85514    5  4  2   747.52045 26.8   802.85521
  4  2  2   780.15417 73.7   802.87525    5  4  2   747.54094 88.3   802.87570
  5  4  2   745.63656 67.7   800.97132    6  4  2   737.20269 55.7   800.97106
  5  4  2   745.67784 31.5   801.01260    6  4  2   737.24374 82.3   801.01211
  5  4  2   745.72735 76.2   801.06211    6  4  2   737.29447 70.6   801.06284
  5  4  2   745.74279 43.9   801.07755    6  4  2   737.30915 86.3   801.07752
  5  4  2   745.77500 27.0   801.10976    6  4  2   737.34056 80.1   801.10893
  5  4  2   745.78050 77.2   801.11526    6  4  2   737.34598 68.1   801.11435
  5  4  2   745.83458 67.5   801.16934    6  4  2   737.40019 83.6   801.16856
  5  4  2   745.84487 46.5   801.17963    6  4  2   737.41066 88.1   801.17903
  5  4  2   745.85048 77.6   801.18524    6  4  2   737.41730 84.9   801.18567
  5  4  2   745.90005 83.9   801.23481    6  4  2   737.46744 17.0   801.23581
  5  4  2   745.91568 88.9   801.25044    6  4  2   737.48221 78.8   801.25058
  5  4  2   745.91938 82.1   801.25414    6  4  2   737.48670 82.0   801.25507
  5  4  2   745.92489 87.6   801.25965    6  4  2   737.49197 88.8   801.26034
  5  4  2   745.97873 33.8   801.31349    6  4  2   737.54468 73.4   801.31305
  5  4  2   746.15411 75.5   801.48887    6  4  2   737.72076 58.6   801.48913
  5  4  2   746.16568 84.7   801.50044    6  4  2   737.73257 56.5   801.50094
  5  4  2   746.20758 85.4   801.54234    6  4  2   737.77316 89.0   801.54153
  5  4  2   746.21814 65.9   801.55290    6  4  2   737.78359 76.6   801.55196
  5  4  2   746.23811 81.4   801.57287    6  4  2   737.80411 59.2   801.57248
  5  4  2   746.49356 81.6   801.82832    6  4  2   738.05940 57.4   801.82777
  5  4  2   746.50866 87.8   801.84342    6  4  2   738.07481 74.9   801.84318
  5  4  2   746.58946 61.0   801.92422    6  4  2   738.15623 77.7   801.92460
  5  4  2   746.63956 35.9   801.97432    6  4  2   738.20531 87.8   801.97368
  5  4  2   746.64520 79.3   801.97996    6  4  2   738.21111 84.6   801.97948
  5  4  2   746.68811 74.4   802.02287    6  4  2   738.25490 86.4   802.02327
  5  4  2   746.73489 81.0   802.06965    6  4  2   738.30202 71.3   802.07039
  5  4  2   746.78352 35.5   802.11828    6  4  2   738.34896 85.6   802.11733
  5  4  2   746.85743 78.0   802.19219    6  4  2   738.42431 70.9   802.19268
  5  4  2   746.93627 45.8   802.27103    6  4  2   738.50176 58.9   802.27013
  5  4  2   746.97861 38.7   802.31337    6  4  2   738.54406 64.5   802.31243
  5  4  2   747.00620 50.1   802.34096    6  4  2   738.57254 83.7   802.34091
  5  4  2   747.01528 85.8   802.35004    6  4  2   738.58193 86.2   802.35030
  5  4  2   747.07965 41.6   802.41441    6  4  2   738.64589 51.1   802.41427
  5  4  2   747.16043 62.9   802.49519    6  4  2   738.72660 79.8   802.49497
  5  4  2   747.33761 79.9   802.67237    6  4  2   738.90494 41.2   802.67331
  5  4  2   747.34382 70.6   802.67858    6  4  2   738.90997 43.5   802.67834
  5  4  2   747.41872 83.0   802.75348    6  4  2   738.98450 87.2   802.75287
  5  4  2   747.44672 78.6   802.78148    6  4  2   739.01342 78.9   802.78179
  5  4  2   747.50713 41.1   802.84189    6  4  2   739.07321 87.0   802.84158
  5  4  2   747.52690 65.2   802.86166    6  4  2   739.09402 86.3   802.86239

 Searching   6  3  3 near    810.33140
 No   1:   5  2  3       29.89272  reg   779.439 -   781.439
 No   2:   6  4  3       63.76783  reg   745.564 -   747.564
 No   3:   7  4  3       73.61808  reg   735.713 -   737.713
  5  2  3   779.43284 74.7   809.32556    6  4  3   745.55779 60.8   809.32562
  5  2  3   779.54803 84.0   809.44075    6  4  3   745.67260 79.0   809.44043
  5  2  3   779.60855 85.3   809.50127    6  4  3   745.73371 32.9   809.50154
  5  2  3   779.61806 11.0   809.51078    6  4  3   745.74279 43.9   809.51062
  5  2  3   779.62796 43.5   809.52068    6  4  3   745.75262 87.4   809.52045
  5  2  3   779.65636 73.8   809.54908    6  4  3   745.78050 77.2   809.54833
  5  2  3   779.66592 74.9   809.55864    7  4  3   735.94019 63.5   809.55827
  5  2  3   779.67051 83.8   809.56323    6  4  3   745.79555 75.5   809.56338
  5  2  3   779.72069 57.8   809.61341    6  4  3   745.84487 46.5   809.61270
  5  2  3   779.73063 88.6   809.62335    6  4  3   745.85457 87.6   809.62240
  5  2  3   779.73609 68.7   809.62881    7  4  3   736.01010 79.6   809.62818
  5  2  3   779.75487 48.6   809.64759    7  4  3   736.02986 82.3   809.64794
  5  2  3   779.81358 83.7   809.70630    6  4  3   745.93936 83.9   809.70719
  5  2  3   779.82003 64.7   809.71275    6  4  3   745.94410 68.3   809.71193
  5  2  3   779.82677 71.7   809.71949    7  4  3   736.10174 83.8   809.71982
  5  2  3   779.87081 89.6   809.76353    6  4  3   745.99471 34.2   809.76254
  5  2  3   779.91124 29.9   809.80396    7  4  3   736.18676 87.2   809.80484
  5  2  3   779.95016 81.5   809.84288    6  4  3   746.07431 73.3   809.84214
  5  2  3   779.95660 27.5   809.84932    6  4  3   746.08050 81.9   809.84833
                                          7  4  3   736.23164 69.7   809.84972
  5  2  3   780.01621 74.6   809.90893    7  4  3   736.29170 81.5   809.90978
  5  2  3   780.08313 76.4   809.97585    6  4  3   746.20758 85.4   809.97541
  5  2  3   780.13406 84.9   810.02678    6  4  3   746.25933 86.3   810.02716
  5  2  3   780.15417 73.7   810.04689    6  4  3   746.27959 86.6   810.04742
  5  2  3   780.21059 84.9   810.10331    7  4  3   736.48453 87.3   810.10261
  5  2  3   780.25028 89.1   810.14300    6  4  3   746.37519 80.5   810.14302
  5  2  3   780.25899 36.5   810.15171    6  4  3   746.38454 36.5   810.15237
  5  2  3   780.26454 49.3   810.15726    7  4  3   736.53851 63.8   810.15659
  5  2  3   780.28206 83.1   810.17478    7  4  3   736.55722 33.8   810.17530
  5  2  3   780.28829 41.3   810.18101    7  4  3   736.56285 79.4   810.18093
  5  2  3   780.30415 76.2   810.19687    7  4  3   736.57884 46.7   810.19692
  5  2  3   780.32915 88.1   810.22187    6  4  3   746.45328 86.9   810.22111
  5  2  3   780.36456 80.3   810.25728    7  4  3   736.63982 47.9   810.25790
  5  2  3   780.37067 89.6   810.26339    7  4  3   736.64499 35.2   810.26307
  5  2  3   780.38531 65.1   810.27803    7  4  3   736.66078 73.2   810.27886
  5  2  3   780.53511 53.5   810.42783    6  4  3   746.66034 60.5   810.42817
  5  2  3   780.54674 88.3   810.43946    6  4  3   746.67167 22.7   810.43950
  5  2  3   780.62402 72.4   810.51674    6  4  3   746.74887 86.0   810.51670
  5  2  3   780.66813 89.0   810.56085    7  4  3   736.94293 34.0   810.56101
  5  2  3   780.68486 87.4   810.57758    6  4  3   746.80988 88.3   810.57771
  5  2  3   780.80105 66.7   810.69377    6  4  3   746.92680 76.8   810.69463
  5  2  3   780.86403 81.7   810.75675    7  4  3   737.13836 41.7   810.75644
  5  2  3   780.87821 89.2   810.77093    7  4  3   737.15306 27.7   810.77114
  5  2  3   780.91130 80.2   810.80402    6  4  3   747.03563 42.0   810.80346
  5  2  3   780.91668 89.6   810.80940    6  4  3   747.04062 63.2   810.80845
                                          7  4  3   737.19174 55.9   810.80982
  5  2  3   780.94967 84.7   810.84239    6  4  3   747.07445 46.0   810.84228
                                          7  4  3   737.22437 49.6   810.84245
  5  2  3   780.95477 84.4   810.84749    6  4  3   747.07965 41.6   810.84748
                                          7  4  3   737.23031 84.2   810.84839
  5  2  3   780.96425 87.8   810.85697    6  4  3   747.09001 17.2   810.85784
  5  2  3   780.96981 37.0   810.86253    7  4  3   737.24374 82.3   810.86182
  5  2  3   781.05549 83.6   810.94821    7  4  3   737.33080 85.2   810.94888
  5  2  3   781.14247 86.7   811.03519    7  4  3   737.41730 84.9   811.03538
  5  2  3   781.14668 87.1   811.03940    6  4  3   747.27232 52.9   811.04015
  5  2  3   781.16184 39.1   811.05456    6  4  3   747.28582 27.5   811.05365
                                          7  4  3   737.43620 59.4   811.05428
  5  2  3   781.16829 60.3   811.06101    7  4  3   737.44264 70.9   811.06072
  5  2  3   781.18573 88.8   811.07845    6  4  3   747.30990 69.1   811.07773
  5  2  3   781.19235 52.5   811.08507    7  4  3   737.46744 17.0   811.08552
  5  2  3   781.20821 36.5   811.10093    7  4  3   737.48221 78.8   811.10029
  5  2  3   781.26919 64.3   811.16191    7  4  3   737.54468 73.4   811.16276
  5  2  3   781.30603 70.1   811.19875    6  4  3   747.43190 88.2   811.19973
  5  2  3   781.33557 85.4   811.22829    7  4  3   737.61031 70.4   811.22839
  5  2  3   781.34927 89.7   811.24199    6  4  3   747.47390 89.8   811.24173
  5  2  3   781.44488 69.1   811.33760    6  4  3   747.56887 85.2   811.33670
  6  4  3   745.61334 82.9   809.38117    7  4  3   735.76275 76.4   809.38083
  6  4  3   745.62219 78.5   809.39002    7  4  3   735.77255 70.9   809.39063
  6  4  3   745.65473 79.1   809.42256    7  4  3   735.80478 88.4   809.42286
  6  4  3   745.98914 68.1   809.75697    7  4  3   736.13985 76.6   809.75793
  6  4  3   746.00888 20.4   809.77671    7  4  3   736.15907 28.1   809.77715
  6  4  3   746.07103 72.2   809.83886    7  4  3   736.22145 66.5   809.83953
  6  4  3   746.23263 85.4   810.00046    7  4  3   736.38215 87.8   810.00023
  6  4  3   746.28765 46.8   810.05548    7  4  3   736.43731 60.0   810.05539
  6  4  3   746.59483 66.0   810.36266    7  4  3   736.74366 59.0   810.36174
  6  4  3   746.65038 83.4   810.41821    7  4  3   736.79977 64.8   810.41785
  6  4  3   746.82292 74.1   810.59075    7  4  3   736.97302 74.2   810.59110
  6  4  3   746.91728 76.0   810.68511    7  4  3   737.06783 89.2   810.68591
  6  4  3   746.96289 47.8   810.73072    7  4  3   737.11341 78.8   810.73149
  6  4  3   746.97282 85.0   810.74065    7  4  3   737.12311 67.2   810.74119
  6  4  3   746.97861 38.7   810.74644    7  4  3   737.12885 61.3   810.74693
  6  4  3   747.02850 14.4   810.79633    7  4  3   737.17842 60.5   810.79650
  6  4  3   747.07445 46.0   810.84228    7  4  3   737.22437 49.6   810.84245
  6  4  3   747.07965 41.6   810.84748    7  4  3   737.23031 84.2   810.84839
  6  4  3   747.08429 88.7   810.85212    7  4  3   737.23439 86.4   810.85247
  6  4  3   747.11726 73.0   810.88509    7  4  3   737.26787 84.7   810.88595
  6  4  3   747.13481 61.3   810.90264    7  4  3   737.28437 89.5   810.90245
  6  4  3   747.24984 11.6   811.01767    7  4  3   737.40019 83.6   811.01827
  6  4  3   747.25574 48.6   811.02357    7  4  3   737.40560 66.6   811.02368
  6  4  3   747.26160 61.9   811.02943    7  4  3   737.41066 88.1   811.02874
  6  4  3   747.28582 27.5   811.05365    7  4  3   737.43620 59.4   811.05428
  6  4  3   747.33761 79.9   811.10544    7  4  3   737.48670 82.0   811.10478
  6  4  3   747.52690 65.2   811.29473    7  4  3   737.67717 65.9   811.29525
  6  4  3   747.54094 88.3   811.30877    7  4  3   737.69061 70.6   811.30869

 Searching   7  3  4 near    820.23950
 No   1:   6  2  4       38.57011  reg   780.669 -   782.669
 No   2:   7  4  4       73.61611  reg   745.623 -   747.623
 No   3:   8  4  4       84.88948  reg   734.350 -   736.350
  6  2  4   780.66813 89.0   819.23824    7  4  4   745.62219 78.5   819.23830
  6  2  4   780.78186 25.9   819.35197    8  4  4   734.46190 59.6   819.35138
  6  2  4   780.86403 81.7   819.43414    7  4  4   745.81792 87.1   819.43403
  6  2  4   780.87149 18.5   819.44160    8  4  4   734.55160 61.1   819.44108
  6  2  4   780.95477 84.4   819.52488    7  4  4   745.90934 54.6   819.52545
  6  2  4   781.03120 46.5   819.60131    7  4  4   745.98473 83.7   819.60084
                                          8  4  4   734.71182 83.9   819.60130
  6  2  4   781.05549 83.6   819.62560    7  4  4   746.00888 20.4   819.62499
                                          8  4  4   734.73657 27.1   819.62605
  6  2  4   781.09393 81.6   819.66404    8  4  4   734.77381 88.9   819.66329
  6  2  4   781.14247 86.7   819.71258    8  4  4   734.82403 88.8   819.71351
  6  2  4   781.15635 84.9   819.72646    8  4  4   734.83646 13.0   819.72594
  6  2  4   781.19235 52.5   819.76246    8  4  4   734.87360 77.9   819.76308
  6  2  4   781.20356 52.4   819.77367    8  4  4   734.88442 47.3   819.77390
  6  2  4   781.23042 80.5   819.80053    8  4  4   734.91172 81.3   819.80120
  6  2  4   781.26919 64.3   819.83930    8  4  4   734.95065 25.7   819.84013
  6  2  4   781.30603 70.1   819.87614    7  4  4   746.25933 86.3   819.87544
                                          8  4  4   734.98754 38.0   819.87702
  6  2  4   781.32525 86.4   819.89536    7  4  4   746.27959 86.6   819.89570
  6  2  4   781.34927 89.7   819.91938    7  4  4   746.30287 19.8   819.91898
  6  2  4   781.38485 89.4   819.95496    8  4  4   735.06601 43.7   819.95549
  6  2  4   781.40522 41.3   819.97533    7  4  4   746.35911 78.7   819.97522
  6  2  4   781.47426 88.2   820.04437    7  4  4   746.42773 77.7   820.04384
  6  2  4   781.47868 81.8   820.04879    7  4  4   746.43354 35.5   820.04965
                                          8  4  4   735.15956 58.8   820.04904
  6  2  4   781.54006 28.7   820.11017    7  4  4   746.49356 81.6   820.10967
  6  2  4   781.56420 83.8   820.13431    7  4  4   746.51881 36.8   820.13492
  6  2  4   781.58270 88.7   820.15281    8  4  4   735.26240 89.8   820.15188
  6  2  4   781.59092 61.1   820.16103    8  4  4   735.27183 79.9   820.16131
  6  2  4   781.59676 89.7   820.16687    8  4  4   735.27738 24.5   820.16686
  6  2  4   781.62560 31.2   820.19571    7  4  4   746.57924 67.5   820.19535
  6  2  4   781.63605 88.7   820.20616    7  4  4   746.58946 61.0   820.20557
  6  2  4   781.68581 77.3   820.25592    7  4  4   746.63956 35.9   820.25567
  6  2  4   781.74768 75.1   820.31779    8  4  4   735.42831 82.1   820.31779
  6  2  4   781.76600 82.0   820.33611    7  4  4   746.72054 72.5   820.33665
  6  2  4   781.93528 54.6   820.50539    7  4  4   746.88978 62.6   820.50589
  6  2  4   781.94230 82.0   820.51241    8  4  4   735.62254 79.7   820.51202
  6  2  4   782.01664 68.2   820.58675    8  4  4   735.69788 70.1   820.58736
  6  2  4   782.06052 58.2   820.63063    7  4  4   747.01528 85.8   820.63139
                                          8  4  4   735.74042 81.9   820.62991
  6  2  4   782.13892 82.3   820.70903    8  4  4   735.81957 75.8   820.70905
  6  2  4   782.35026 40.8   820.92037    7  4  4   747.30515 49.4   820.92126
  6  2  4   782.47820 72.3   821.04831    7  4  4   747.43190 88.2   821.04801
                                          8  4  4   736.15907 28.1   821.04855
  6  2  4   782.48791 60.8   821.05802    7  4  4   747.44159 73.7   821.05770
  6  2  4   782.51063 21.7   821.08074    8  4  4   736.19177 79.9   821.08125
  6  2  4   782.52045 89.6   821.09056    7  4  4   747.47390 89.8   821.09001
  6  2  4   782.52525 71.1   821.09536    7  4  4   747.47942 86.9   821.09553
  6  2  4   782.54070 85.3   821.11081    8  4  4   736.22145 66.5   821.11093
  6  2  4   782.61417 89.6   821.18428    7  4  4   747.56887 85.2   821.18498
  6  2  4   782.63221 62.9   821.20232    7  4  4   747.58662 69.4   821.20273
                                          8  4  4   736.31246 87.9   821.20194
  7  4  4   745.65473 79.1   819.27084    8  4  4   734.38235 76.2   819.27183
  7  4  4   745.69670 73.3   819.31281    8  4  4   734.42239 52.3   819.31187
  7  4  4   745.74279 43.9   819.35890    8  4  4   734.46860 45.3   819.35808
  7  4  4   745.79555 75.5   819.41166    8  4  4   734.52190 57.0   819.41138
  7  4  4   745.80048 59.5   819.41659    8  4  4   734.52766 85.5   819.41714
  7  4  4   745.82403 50.0   819.44014    8  4  4   734.55160 61.1   819.44108
  7  4  4   745.82943 77.1   819.44554    8  4  4   734.55639 66.9   819.44587
  7  4  4   745.85457 87.6   819.47068    8  4  4   734.58092 82.5   819.47040
  7  4  4   745.91568 88.9   819.53179    8  4  4   734.64246 45.2   819.53194
  7  4  4   745.96763 46.9   819.58374    8  4  4   734.69382 80.4   819.58330
  7  4  4   745.98473 83.7   819.60084    8  4  4   734.71182 83.9   819.60130
  7  4  4   746.01481 80.2   819.63092    8  4  4   734.74221 34.7   819.63169
  7  4  4   746.03277 46.2   819.64888    8  4  4   734.75885 87.8   819.64833
  7  4  4   746.09802 78.1   819.71413    8  4  4   734.82403 88.8   819.71351
  7  4  4   746.23811 81.4   819.85422    8  4  4   734.96567 66.7   819.85515
  7  4  4   746.27959 86.6   819.89570    8  4  4   735.00714 67.5   819.89662
  7  4  4   746.37797 80.3   819.99408    8  4  4   735.10371 79.1   819.99319
  7  4  4   746.40105 65.2   820.01716    8  4  4   735.12738 78.7   820.01686
  7  4  4   746.43354 35.5   820.04965    8  4  4   735.15956 58.8   820.04904
  7  4  4   746.43916 78.2   820.05527    8  4  4   735.16595 68.2   820.05543
  7  4  4   746.47987 67.4   820.09599    8  4  4   735.20668 84.9   820.09616
  7  4  4   746.51356 87.1   820.12967    8  4  4   735.24011 46.0   820.12959
  7  4  4   746.53535 81.4   820.15146    8  4  4   735.26240 89.8   820.15188
  7  4  4   746.61139 68.2   820.22750    8  4  4   735.33884 73.5   820.22832
  7  4  4   746.69479 86.4   820.31090    8  4  4   735.42104 49.3   820.31052
  7  4  4   746.73489 81.0   820.35100    8  4  4   735.46243 65.0   820.35191
  7  4  4   746.74378 83.5   820.35989    8  4  4   735.46976 69.3   820.35924
  7  4  4   746.76122 24.1   820.37733    8  4  4   735.48770 14.2   820.37718
  7  4  4   746.89859 80.8   820.51470    8  4  4   735.62496 79.9   820.51444
  7  4  4   746.98419 55.8   820.60030    8  4  4   735.71084 75.7   820.60032
  7  4  4   747.03563 42.0   820.65174    8  4  4   735.76275 76.4   820.65223
  7  4  4   747.04062 63.2   820.65673    8  4  4   735.76796 81.3   820.65744
  7  4  4   747.04610 78.0   820.66221    8  4  4   735.77255 70.9   820.66203
  7  4  4   747.13481 61.3   820.75092    8  4  4   735.86203 89.6   820.75151
  7  4  4   747.17125 62.6   820.78736    8  4  4   735.89853 84.9   820.78801
  7  4  4   747.39063 20.9   821.00674    8  4  4   736.11627 41.5   821.00575
  7  4  4   747.40833 89.4   821.02444    8  4  4   736.13582 88.3   821.02530
  7  4  4   747.41323 37.8   821.02934    8  4  4   736.13985 76.6   821.02933
  7  4  4   747.42324 47.0   821.03935    8  4  4   736.14891 37.7   821.03839
  7  4  4   747.43190 88.2   821.04801    8  4  4   736.15907 28.1   821.04855
  7  4  4   747.56887 85.2   821.18498    8  4  4   736.29591 88.1   821.18539
  7  4  4   747.57557 68.4   821.19168    8  4  4   736.30165 40.4   821.19113
  7  4  4   747.58028 74.4   821.19639    8  4  4   736.30688 55.9   821.19636
  7  4  4   747.58662 69.4   821.20273    8  4  4   736.31246 87.9   821.20194
  7  4  4   747.63131 21.9   821.24742    8  4  4   736.35890 77.5   821.24838

 Searching   8  3  5 near    831.60844
 No   1:   7  2  5       48.77161  reg   781.837 -   783.837
 No   2:   8  4  5       84.88362  reg   745.725 -   747.725
 No   3:   9  4  5       97.58956  reg   733.019 -   735.019
  7  2  5   781.84002 57.2   830.61163    8  4  5   745.72735 76.2   830.61097
  7  2  5   781.87277 82.9   830.64438    8  4  5   745.76157 88.3   830.64519
  7  2  5   781.88776 19.8   830.65937    8  4  5   745.77500 27.0   830.65862
  7  2  5   781.90665 71.3   830.67826    8  4  5   745.79555 75.5   830.67917
  7  2  5   781.93528 54.6   830.70689    8  4  5   745.82403 50.0   830.70765
  7  2  5   781.94230 82.0   830.71391    8  4  5   745.82943 77.1   830.71305
  7  2  5   781.96630 67.7   830.73791    8  4  5   745.85457 87.6   830.73819
  7  2  5   782.00667 29.5   830.77828    9  4  5   733.18804 87.3   830.77760
  7  2  5   782.05110 34.6   830.82271    8  4  5   745.93936 83.9   830.82298
                                          9  4  5   733.23357 87.9   830.82313
  7  2  5   782.07976 88.7   830.85137    8  4  5   745.96763 46.9   830.85125
  7  2  5   782.10484 41.8   830.87645    9  4  5   733.28677 62.7   830.87633
  7  2  5   782.17759 76.8   830.94920    8  4  5   746.06473 10.1   830.94835
  7  2  5   782.18348 55.8   830.95509    8  4  5   746.07103 72.2   830.95465
  7  2  5   782.22707 89.0   830.99868    9  4  5   733.41003 59.4   830.99959
  7  2  5   782.32554 76.3   831.09715    8  4  5   746.21278 12.5   831.09640
  7  2  5   782.35026 40.8   831.12187    8  4  5   746.23811 81.4   831.12173
  7  2  5   782.37171 47.0   831.14332    8  4  5   746.25933 86.3   831.14295
  7  2  5   782.39087 87.1   831.16248    8  4  5   746.27959 86.6   831.16321
  7  2  5   782.40025 70.7   831.17186    8  4  5   746.28765 46.8   831.17127
                                          9  4  5   733.58303 71.6   831.17259
  7  2  5   782.46338 88.3   831.23499    9  4  5   733.64446 81.0   831.23402
  7  2  5   782.47820 72.3   831.24981    9  4  5   733.65997 70.2   831.24953
  7  2  5   782.48791 60.8   831.25952    8  4  5   746.37519 80.5   831.25881
  7  2  5   782.54070 85.3   831.31231    8  4  5   746.42773 77.7   831.31135
  7  2  5   782.68964 72.3   831.46125    9  4  5   733.87231 31.2   831.46187
  7  2  5   782.75196 16.6   831.52357    8  4  5   746.63956 35.9   831.52318
  7  2  5   782.76261 79.1   831.53422    8  4  5   746.65038 83.4   831.53400
  7  2  5   782.78295 89.1   831.55456    8  4  5   746.67167 22.7   831.55529
  7  2  5   782.80260 52.9   831.57421    9  4  5   733.98547 74.2   831.57503
  7  2  5   782.82817 87.5   831.59978    8  4  5   746.71528 73.6   831.59890
  7  2  5   782.86999 44.9   831.64160    9  4  5   734.05231 84.6   831.64187
  7  2  5   782.89270 33.0   831.66431    9  4  5   734.07380 71.6   831.66336
  7  2  5   782.96348 66.1   831.73509    8  4  5   746.85075 69.5   831.73437
  7  2  5   783.02874 85.7   831.80035    8  4  5   746.91728 76.0   831.80090
  7  2  5   783.12003 74.7   831.89164    9  4  5   734.30184 69.6   831.89140
  7  2  5   783.15748 55.4   831.92909    8  4  5   747.04610 78.0   831.92972
                                          9  4  5   734.33931 57.0   831.92887
  7  2  5   783.17227 89.2   831.94388    9  4  5   734.35418 74.2   831.94374
  7  2  5   783.19124 88.7   831.96285    8  4  5   747.07965 41.6   831.96327
  7  2  5   783.19572 87.8   831.96733    8  4  5   747.08429 88.7   831.96791
  7  2  5   783.25516 80.0   832.02677    9  4  5   734.43631 74.6   832.02587
  7  2  5   783.32731 67.5   832.09892    9  4  5   734.50843 61.0   832.09799
  7  2  5   783.36698 89.8   832.13859    8  4  5   747.25574 48.6   832.13936
  7  2  5   783.44134 23.2   832.21295    8  4  5   747.33028 78.5   832.21390
  7  2  5   783.46047 85.0   832.23208    9  4  5   734.64246 45.2   832.23202
  7  2  5   783.49198 81.5   832.26359    9  4  5   734.67367 24.0   832.26323
  7  2  5   783.50237 63.1   832.27398    8  4  5   747.39063 20.9   832.27425
  7  2  5   783.52605 88.9   832.29766    8  4  5   747.41323 37.8   832.29685
  7  2  5   783.54973 40.2   832.32134    9  4  5   734.73180 42.3   832.32136
  7  2  5   783.57744 60.9   832.34905    9  4  5   734.75885 87.8   832.34841
  7  2  5   783.61949 40.2   832.39110    8  4  5   747.50713 41.1   832.39075
  7  2  5   783.64262 75.2   832.41423    9  4  5   734.82403 88.8   832.41359
  7  2  5   783.73722 20.5   832.50883    9  4  5   734.91940 88.4   832.50896
  7  2  5   783.74267 89.5   832.51428    8  4  5   747.63131 21.9   832.51493
                                          9  4  5   734.92562 78.4   832.51518
  7  2  5   783.81383 77.8   832.58544    8  4  5   747.70186 56.6   832.58547
  7  2  5   783.82039 71.6   832.59200    8  4  5   747.70752 82.1   832.59114
                                          9  4  5   735.00283 89.8   832.59239
  8  4  5   745.74279 43.9   830.62641    9  4  5   733.03615 55.9   830.62571
  8  4  5   745.77500 27.0   830.65862    9  4  5   733.06872 49.5   830.65828
  8  4  5   745.78050 77.2   830.66412    9  4  5   733.07473 56.0   830.66429
  8  4  5   745.81792 87.1   830.70154    9  4  5   733.11224 87.5   830.70180
  8  4  5   745.82403 50.0   830.70765    9  4  5   733.11853 39.4   830.70809
  8  4  5   745.86367 86.9   830.74729    9  4  5   733.15841 80.5   830.74797
  8  4  5   745.86870 88.7   830.75232    9  4  5   733.16343 88.1   830.75299
  8  4  5   745.92489 87.6   830.80851    9  4  5   733.21944 82.8   830.80900
  8  4  5   745.93936 83.9   830.82298    9  4  5   733.23357 87.9   830.82313
  8  4  5   745.94410 68.3   830.82772    9  4  5   733.23814 80.9   830.82770
  8  4  5   746.01481 80.2   830.89843    9  4  5   733.30820 89.4   830.89776
  8  4  5   746.10319 82.5   830.98681    9  4  5   733.39784 86.3   830.98740
  8  4  5   746.16094 88.4   831.04456    9  4  5   733.45575 72.2   831.04531
  8  4  5   746.17246 63.1   831.05608    9  4  5   733.46697 72.3   831.05653
  8  4  5   746.18013 89.2   831.06375    9  4  5   733.47341 84.2   831.06297
  8  4  5   746.20261 87.1   831.08623    9  4  5   733.49745 86.2   831.08701
  8  4  5   746.21814 65.9   831.10176    9  4  5   733.51229 87.7   831.10185
  8  4  5   746.27959 86.6   831.16321    9  4  5   733.57407 76.3   831.16363
  8  4  5   746.37797 80.3   831.26159    9  4  5   733.67150 58.1   831.26106
  8  4  5   746.40105 65.2   831.28467    9  4  5   733.69531 49.0   831.28487
  8  4  5   746.45328 86.9   831.33690    9  4  5   733.74790 77.6   831.33746
  8  4  5   746.53535 81.4   831.41897    9  4  5   733.82843 61.5   831.41799
  8  4  5   746.54197 10.8   831.42559    9  4  5   733.83515 86.0   831.42471
  8  4  5   746.57924 67.5   831.46286    9  4  5   733.87231 31.2   831.46187
  8  4  5   746.73489 81.0   831.61851    9  4  5   734.02939 74.3   831.61895
  8  4  5   746.79698 56.9   831.68060    9  4  5   734.09023 38.6   831.67979
  8  4  5   746.85743 78.0   831.74105    9  4  5   734.15211 82.5   831.74167
  8  4  5   746.96289 47.8   831.84651    9  4  5   734.25708 75.1   831.84664
  8  4  5   747.02025 89.7   831.90387    9  4  5   734.31508 21.7   831.90464
  8  4  5   747.04610 78.0   831.92972    9  4  5   734.33931 57.0   831.92887
  8  4  5   747.10413 79.3   831.98775    9  4  5   734.39818 80.7   831.98774
  8  4  5   747.26160 61.9   832.14522    9  4  5   734.55639 66.9   832.14595
  8  4  5   747.41872 83.0   832.30234    9  4  5   734.71182 83.9   832.30138
  8  4  5   747.42324 47.0   832.30686    9  4  5   734.71756 17.0   832.30712
  8  4  5   747.44159 73.7   832.32521    9  4  5   734.73657 27.1   832.32613
  8  4  5   747.47390 89.8   832.35752    9  4  5   734.76878 87.8   832.35834
  8  4  5   747.47942 86.9   832.36304    9  4  5   734.77381 88.9   832.36337
  8  4  5   747.48714 88.1   832.37076    9  4  5   734.78218 77.2   832.37174
  8  4  5   747.52045 26.8   832.40407    9  4  5   734.81354 32.2   832.40310
  8  4  5   747.58028 74.4   832.46390    9  4  5   734.87360 77.9   832.46316
  8  4  5   747.63131 21.9   832.51493    9  4  5   734.92562 78.4   832.51518
  8  4  5   747.63649 70.7   832.52011    9  4  5   734.93050 52.1   832.52006
  8  4  5   747.65237 88.0   832.53599    9  4  5   734.94596 14.8   832.53552
