Range    : 1.000
Accuracy : 0.001
Control file  : C2HD3gr   
Spectrum file : s         

 Searching   1  1  1 near    764.95881
 No   1:   1  0  1        1.39995  reg   762.559 -   764.559
 No   2:   2  2  1       12.77805  reg   751.181 -   753.181
  1  0  1   762.55494 20.4   763.95489    2  2  1   751.17753 21.4   763.95558
  1  0  1   762.56550 68.7   763.96545    2  2  1   751.18764 57.4   763.96569
  1  0  1   762.59691 82.6   763.99686    2  2  1   751.21851 75.0   763.99656
  1  0  1   762.63584 25.0   764.03579    2  2  1   751.25675 59.3   764.03480
  1  0  1   762.65963 23.1   764.05958    2  2  1   751.28125 77.7   764.05930
  1  0  1   762.66565 59.9   764.06560    2  2  1   751.28681 44.0   764.06486
  1  0  1   762.72530 80.4   764.12525    2  2  1   751.34714 54.0   764.12519
  1  0  1   762.75476 79.1   764.15471    2  2  1   751.37761 55.1   764.15566
  1  0  1   762.77811 29.8   764.17806    2  2  1   751.39946 79.6   764.17751
  1  0  1   762.84764 85.6   764.24759    2  2  1   751.47014 84.8   764.24819
  1  0  1   762.87913 89.6   764.27908    2  2  1   751.50004 83.7   764.27809
  1  0  1   762.91376 86.2   764.31371    2  2  1   751.53500 46.4   764.31305
  1  0  1   762.91794 76.1   764.31789    2  2  1   751.54053 88.4   764.31858
  1  0  1   762.95947 58.2   764.35942    2  2  1   751.58237 73.4   764.36042
  1  0  1   763.16008 76.7   764.56003    2  2  1   751.78297 47.7   764.56102
  1  0  1   763.16638 19.2   764.56633    2  2  1   751.78844 44.0   764.56649
  1  0  1   763.19800 66.3   764.59795    2  2  1   751.82030 66.9   764.59835
  1  0  1   763.20382 23.5   764.60377    2  2  1   751.82555 87.6   764.60360
  1  0  1   763.28172 74.0   764.68167    2  2  1   751.90461 78.7   764.68266
  1  0  1   763.47055 78.3   764.87050    2  2  1   752.09315 82.1   764.87120
  1  0  1   763.49338 78.2   764.89333    2  2  1   752.11506 67.2   764.89311
  1  0  1   763.51352 84.9   764.91347    2  2  1   752.13458 84.0   764.91263
  1  0  1   763.53006 84.0   764.93001    2  2  1   752.15154 80.5   764.92959
  1  0  1   763.60899 81.3   765.00894    2  2  1   752.23036 38.0   765.00841
  1  0  1   763.64607 72.3   765.04602    2  2  1   752.26860 56.5   765.04665
  1  0  1   763.65767 67.9   765.05762    2  2  1   752.27913 56.0   765.05718
  1  0  1   763.76550 84.1   765.16545    2  2  1   752.38666 83.4   765.16471
  1  0  1   763.76998 85.9   765.16993    2  2  1   752.39245 59.3   765.17050
  1  0  1   763.82190 68.0   765.22185    2  2  1   752.44332 54.3   765.22137
  1  0  1   763.82730 38.4   765.22725    2  2  1   752.44998 83.6   765.22803
  1  0  1   763.86540 76.9   765.26535    2  2  1   752.48696 80.0   765.26501
  1  0  1   763.90398 39.3   765.30393    2  2  1   752.52504 81.0   765.30309
  1  0  1   763.90901 85.7   765.30896    2  2  1   752.53056 85.4   765.30861
  1  0  1   763.91431 74.8   765.31426    2  2  1   752.53533 66.1   765.31338
  1  0  1   764.01206 68.4   765.41201    2  2  1   752.63394 74.7   765.41199
  1  0  1   764.03779 40.7   765.43774    2  2  1   752.66004 86.0   765.43809
  1  0  1   764.10125 58.6   765.50120    2  2  1   752.72325 82.9   765.50130
  1  0  1   764.23012 17.5   765.63007    2  2  1   752.85158 47.6   765.62963
  1  0  1   764.25723 66.0   765.65718    2  2  1   752.87988 81.1   765.65793
  1  0  1   764.27914 23.1   765.67909    2  2  1   752.90137 84.6   765.67942
  1  0  1   764.29752 16.0   765.69747    2  2  1   752.91886 55.5   765.69691
  1  0  1   764.30223 66.2   765.70218    2  2  1   752.92445 45.1   765.70250
  1  0  1   764.35874 17.8   765.75869    2  2  1   752.98128 68.3   765.75933
  1  0  1   764.47447 86.4   765.87442    2  2  1   753.09623 84.2   765.87428
  1  0  1   764.49002 71.3   765.88997    2  2  1   753.11125 87.8   765.88930
  1  0  1   764.51272 58.2   765.91267    2  2  1   753.13495 69.7   765.91300

 Searching   2  1  2 near    767.58707
 No   1:   2  0  2        4.18956  reg   762.398 -   764.398
 No   2:   3  2  2       16.97774  reg   749.609 -   751.609
  2  0  2   762.48719 31.5   766.67675    3  2  2   749.69879 64.6   766.67653
  2  0  2   762.49881 86.5   766.68837    3  2  2   749.71161 12.2   766.68935
  2  0  2   762.57847 73.7   766.76803    3  2  2   749.79049 80.6   766.76823
  2  0  2   762.58455 56.2   766.77411    3  2  2   749.79600 59.9   766.77374
  2  0  2   762.66565 59.9   766.85521    3  2  2   749.87748 45.3   766.85522
  2  0  2   762.74363 62.1   766.93319    3  2  2   749.95557 85.7   766.93331
  2  0  2   762.75476 79.1   766.94432    3  2  2   749.96680 40.6   766.94454
  2  0  2   762.81867 87.6   767.00823    3  2  2   750.03127 43.8   767.00901
  2  0  2   762.83838 77.0   767.02794    3  2  2   750.05024 87.7   767.02798
  2  0  2   762.84764 85.6   767.03720    3  2  2   750.05955 71.0   767.03729
  2  0  2   763.06391 55.6   767.25347    3  2  2   750.27497 80.5   767.25271
  2  0  2   763.07004 83.5   767.25960    3  2  2   750.28118 39.4   767.25892
  2  0  2   763.07557 68.9   767.26513    3  2  2   750.28669 85.8   767.26443
  2  0  2   763.08509 53.1   767.27465    3  2  2   750.29693 84.0   767.27467
  2  0  2   763.09941 84.9   767.28897    3  2  2   750.31058 83.3   767.28832
  2  0  2   763.11646 45.3   767.30602    3  2  2   750.32763 68.4   767.30537
  2  0  2   763.12199 65.8   767.31155    3  2  2   750.33363 73.5   767.31137
  2  0  2   763.14064 16.3   767.33020    3  2  2   750.35293 84.3   767.33067
  2  0  2   763.16638 19.2   767.35594    3  2  2   750.37863 51.5   767.35637
  2  0  2   763.18737 77.7   767.37693    3  2  2   750.39934 87.6   767.37708
  2  0  2   763.31104 68.0   767.50060    3  2  2   750.52356 83.7   767.50130
  2  0  2   763.32708 89.5   767.51664    3  2  2   750.53945 89.7   767.51719
  2  0  2   763.35123 35.7   767.54079    3  2  2   750.56227 87.0   767.54001
  2  0  2   763.40670 57.3   767.59626    3  2  2   750.61773 68.9   767.59547
  2  0  2   763.42590 87.3   767.61546    3  2  2   750.63722 51.5   767.61496
  2  0  2   763.43994 46.2   767.62950    3  2  2   750.65244 36.0   767.63018
  2  0  2   763.45026 48.4   767.63982    3  2  2   750.66218 88.0   767.63992
  2  0  2   763.50899 77.0   767.69855    3  2  2   750.72154 72.8   767.69928
  2  0  2   763.60899 81.3   767.79855    3  2  2   750.82028 47.6   767.79802
  2  0  2   763.64607 72.3   767.83563    3  2  2   750.85844 52.5   767.83618
  2  0  2   763.66299 83.0   767.85255    3  2  2   750.87574 86.6   767.85348
  2  0  2   763.68820 89.0   767.87776    3  2  2   750.89995 38.0   767.87769
  2  0  2   763.76998 85.9   767.95954    3  2  2   750.98121 32.3   767.95895
  2  0  2   763.83609 43.5   768.02565    3  2  2   751.04693 88.3   768.02467
  2  0  2   763.89383 30.8   768.08339    3  2  2   751.10466 22.9   768.08240
  2  0  2   763.95151 34.9   768.14107    3  2  2   751.16301 86.5   768.14075
  2  0  2   764.07902 39.6   768.26858    3  2  2   751.29154 33.1   768.26928
  2  0  2   764.10125 58.6   768.29081    3  2  2   751.31256 71.6   768.29030
  2  0  2   764.24340 73.9   768.43296    3  2  2   751.45572 40.6   768.43346
  2  0  2   764.37018 83.6   768.55974    3  2  2   751.58237 73.4   768.56011

 Searching   3  1  3 near    771.52318
 No   1:   3  0  3        8.34844  reg   762.175 -   764.175
 No   2:   4  2  3       22.56924  reg   747.954 -   749.954
  3  0  3   762.18982 82.9   770.53826    4  2  3   747.96965 82.5   770.53889
  3  0  3   762.21972 73.7   770.56816    4  2  3   747.99904 85.6   770.56828
  3  0  3   762.22676 81.8   770.57520    4  2  3   748.00608 79.3   770.57532
  3  0  3   762.34951 75.4   770.69795    4  2  3   748.12919 31.7   770.69843
  3  0  3   762.43032 59.8   770.77876    4  2  3   748.20903 33.0   770.77827
  3  0  3   762.54271 81.1   770.89115    4  2  3   748.32256 85.2   770.89180
  3  0  3   762.59691 82.6   770.94535    4  2  3   748.37579 33.2   770.94503
  3  0  3   762.60141 84.2   770.94985    4  2  3   748.38146 87.2   770.95070
  3  0  3   762.65963 23.1   771.00807    4  2  3   748.43900 69.7   771.00824
  3  0  3   762.78245 47.6   771.13089    4  2  3   748.56071 28.7   771.12995
  3  0  3   762.84764 85.6   771.19608    4  2  3   748.62600 37.6   771.19524
  3  0  3   762.88457 30.5   771.23301    4  2  3   748.66448 79.9   771.23372
  3  0  3   762.94944 65.7   771.29788    4  2  3   748.72957 88.2   771.29881
  3  0  3   762.95947 58.2   771.30791    4  2  3   748.73821 69.5   771.30745
  3  0  3   762.97267 53.2   771.32111    4  2  3   748.75278 81.3   771.32202
  3  0  3   763.03547 81.9   771.38391    4  2  3   748.81388 77.3   771.38312
  3  0  3   763.05060 60.0   771.39904    4  2  3   748.82971 75.2   771.39895
  3  0  3   763.14609 79.4   771.49453    4  2  3   748.92479 60.5   771.49403
  3  0  3   763.15101 72.3   771.49945    4  2  3   748.93081 88.7   771.50005
  3  0  3   763.16638 19.2   771.51482    4  2  3   748.94612 56.2   771.51536
  3  0  3   763.26547 71.4   771.61391    4  2  3   749.04458 86.0   771.61382
  3  0  3   763.29706 78.3   771.64550    4  2  3   749.07719 74.7   771.64643
  3  0  3   763.30250 61.4   771.65094    4  2  3   749.08221 86.1   771.65145
  3  0  3   763.32708 89.5   771.67552    4  2  3   749.10694 87.6   771.67618
  3  0  3   763.36578 73.3   771.71422    4  2  3   749.14423 89.8   771.71347
  3  0  3   763.40670 57.3   771.75514    4  2  3   749.18541 87.0   771.75465
  3  0  3   763.45026 48.4   771.79870    4  2  3   749.22909 79.1   771.79833
  3  0  3   763.51352 84.9   771.86196    4  2  3   749.29220 87.5   771.86144
  3  0  3   763.53825 70.4   771.88669    4  2  3   749.31818 84.0   771.88742
  3  0  3   763.78081 85.3   772.12925    4  2  3   749.55943 84.9   772.12867
  3  0  3   763.89383 30.8   772.24227    4  2  3   749.67397 23.1   772.24321
  3  0  3   763.91431 74.8   772.26275    4  2  3   749.69259 87.4   772.26183
  3  0  3   764.01206 68.4   772.36050    4  2  3   749.79049 80.6   772.35973
  3  0  3   764.03779 40.7   772.38623    4  2  3   749.81758 40.9   772.38682
