Range    : 1.000
Accuracy : 0.001
Control file  : C2HD3gr   
Spectrum file : s         

 Searching   3  3  1 near    789.20521
 No   1:   2  2  1       12.77805  reg   775.427 -   777.427
 No   2:   3  2  1       17.02892  reg   771.176 -   773.176
 No   3:   4  4  1       48.31318  reg   739.892 -   741.892
  2  2  1   775.51683 35.7   788.29488    3  2  1   771.26608 51.6   788.29500
  2  2  1   775.52981 63.5   788.30786    3  2  1   771.27924 79.4   788.30816
                                          4  4  1   739.99424 81.2   788.30742
  2  2  1   775.54972 88.4   788.32777    3  2  1   771.29917 76.8   788.32809
  2  2  1   775.56166 77.7   788.33971    4  4  1   740.02688 56.3   788.34006
  2  2  1   775.68707 77.7   788.46512    3  2  1   771.43638 76.4   788.46530
  2  2  1   775.70464 85.4   788.48269    3  2  1   771.45316 19.8   788.48208
  2  2  1   775.80060 40.4   788.57865    4  4  1   740.26630 67.0   788.57948
  2  2  1   775.83163 89.3   788.60968    3  2  1   771.58086 89.6   788.60978
  2  2  1   775.84222 87.0   788.62027    3  2  1   771.59217 83.6   788.62109
  2  2  1   775.88389 79.6   788.66194    4  4  1   740.34872 79.8   788.66190
  2  2  1   776.09203 83.4   788.87008    3  2  1   771.84210 84.5   788.87102
                                          4  4  1   740.55755 76.7   788.87073
  2  2  1   776.13670 69.3   788.91475    4  4  1   740.60203 78.3   788.91521
  2  2  1   776.14265 80.2   788.92070    4  4  1   740.60755 82.4   788.92073
  2  2  1   776.15089 85.3   788.92894    4  4  1   740.61663 85.6   788.92981
  2  2  1   776.16188 69.9   788.93993    4  4  1   740.62745 68.7   788.94063
  2  2  1   776.18926 84.7   788.96731    3  2  1   771.93876 79.4   788.96768
  2  2  1   776.23703 76.4   789.01508    4  4  1   740.70128 82.0   789.01446
  2  2  1   776.24821 38.0   789.02626    3  2  1   771.99777 86.0   789.02669
                                          4  4  1   740.71281 45.9   789.02599
  2  2  1   776.32869 27.8   789.10674    4  4  1   740.79446 77.8   789.10764
  2  2  1   776.34875 86.9   789.12680    4  4  1   740.81415 30.5   789.12733
  2  2  1   776.38024 82.8   789.15829    3  2  1   772.12977 57.6   789.15869
  2  2  1   776.39981 65.8   789.17786    4  4  1   740.86521 85.7   789.17839
  2  2  1   776.40476 85.3   789.18281    3  2  1   772.15428 86.1   789.18320
  2  2  1   776.42686 54.6   789.20491    4  4  1   740.89136 46.2   789.20454
  2  2  1   776.43191 75.3   789.20996    3  2  1   772.18028 54.8   789.20920
  2  2  1   776.43721 89.9   789.21526    3  2  1   772.18577 87.1   789.21469
  2  2  1   776.49502 86.7   789.27307    3  2  1   772.24418 89.6   789.27310
  2  2  1   776.50898 88.0   789.28703    4  4  1   740.97464 61.6   789.28782
  2  2  1   776.57109 82.0   789.34914    4  4  1   741.03537 77.5   789.34855
  2  2  1   776.59761 25.2   789.37566    3  2  1   772.34581 82.4   789.37473
  2  2  1   776.71674 87.4   789.49479    3  2  1   772.46684 88.8   789.49576
  2  2  1   776.75696 89.3   789.53501    4  4  1   741.22148 31.0   789.53466
  2  2  1   776.78860 44.2   789.56665    3  2  1   772.53747 81.0   789.56639
  2  2  1   776.79554 62.2   789.57359    3  2  1   772.54438 89.1   789.57330
                                          4  4  1   741.26044 76.2   789.57362
  2  2  1   776.84570 50.9   789.62375    4  4  1   741.31000 87.6   789.62318
  2  2  1   776.86115 53.9   789.63920    3  2  1   772.61077 42.2   789.63969
  2  2  1   776.89283 70.3   789.67088    4  4  1   741.35757 18.6   789.67075
  2  2  1   776.92200 85.6   789.70005    4  4  1   741.38730 82.8   789.70048
  2  2  1   776.94149 85.7   789.71954    4  4  1   741.40654 64.7   789.71972
  2  2  1   776.95949 66.7   789.73754    4  4  1   741.42452 81.2   789.73770
  2  2  1   776.98744 72.5   789.76549    4  4  1   741.45265 56.4   789.76583
  2  2  1   777.08120 89.8   789.85925    4  4  1   741.54519 37.2   789.85837
  2  2  1   777.09190 18.4   789.86995    4  4  1   741.55579 79.0   789.86897
  2  2  1   777.14644 79.2   789.92449    4  4  1   741.61131 89.4   789.92449
  2  2  1   777.16637 24.4   789.94442    3  2  1   772.91542 59.1   789.94434
  2  2  1   777.22375 65.7   790.00180    3  2  1   772.97190 83.8   790.00082
  2  2  1   777.25817 71.4   790.03622    3  2  1   773.00734 57.8   790.03626
                                          4  4  1   741.72347 70.4   790.03665
  2  2  1   777.27167 89.8   790.04972    4  4  1   741.73735 29.2   790.05053
  2  2  1   777.30079 37.1   790.07884    4  4  1   741.76625 82.6   790.07943
  2  2  1   777.34558 89.5   790.12363    3  2  1   773.09486 87.2   790.12378
  2  2  1   777.35108 88.7   790.12913    4  4  1   741.81634 78.5   790.12952
  2  2  1   777.38980 88.8   790.16785    4  4  1   741.85368 80.0   790.16686
  2  2  1   777.40542 76.0   790.18347    3  2  1   773.15499 89.6   790.18391
  2  2  1   777.41839 60.3   790.19644    3  2  1   773.16659 23.4   790.19551
  3  2  1   771.27924 79.4   788.30816    4  4  1   739.99424 81.2   788.30742
  3  2  1   771.32776 17.3   788.35668    4  4  1   740.04447 75.2   788.35765
  3  2  1   771.33700 63.5   788.36592    4  4  1   740.05314 71.7   788.36632
  3  2  1   771.38759 54.3   788.41651    4  4  1   740.10235 83.0   788.41553
  3  2  1   771.41784 41.5   788.44676    4  4  1   740.13441 34.7   788.44759
  3  2  1   771.44129 69.5   788.47021    4  4  1   740.15703 78.7   788.47021
  3  2  1   771.47277 59.1   788.50169    4  4  1   740.18919 80.2   788.50237
  3  2  1   771.47793 51.2   788.50685    4  4  1   740.19430 48.2   788.50748
  3  2  1   771.48809 89.4   788.51701    4  4  1   740.20419 82.7   788.51737
  3  2  1   771.49306 75.8   788.52198    4  4  1   740.20953 77.3   788.52271
  3  2  1   771.62043 88.9   788.64935    4  4  1   740.33556 55.5   788.64874
  3  2  1   771.68953 87.9   788.71845    4  4  1   740.40506 70.1   788.71824
  3  2  1   771.70848 89.2   788.73740    4  4  1   740.42431 21.3   788.73749
  3  2  1   771.72753 77.1   788.75645    4  4  1   740.44276 89.1   788.75594
  3  2  1   771.74739 87.6   788.77631    4  4  1   740.46254 71.8   788.77572
  3  2  1   771.78528 18.2   788.81420    4  4  1   740.50167 62.6   788.81485
  3  2  1   771.84210 84.5   788.87102    4  4  1   740.55755 76.7   788.87073
  3  2  1   771.99777 86.0   789.02669    4  4  1   740.71281 45.9   789.02599
  3  2  1   772.00304 84.9   789.03196    4  4  1   740.71797 56.6   789.03115
  3  2  1   772.03269 36.9   789.06161    4  4  1   740.74751 63.8   789.06069
  3  2  1   772.20443 77.1   789.23335    4  4  1   740.91934 29.8   789.23252
  3  2  1   772.25042 15.6   789.27934    4  4  1   740.96581 70.8   789.27899
  3  2  1   772.40419 85.7   789.43311    4  4  1   741.12074 83.7   789.43392
  3  2  1   772.41651 59.4   789.44543    4  4  1   741.13188 87.1   789.44506
  3  2  1   772.44039 84.7   789.46931    4  4  1   741.15544 74.1   789.46862
  3  2  1   772.44731 59.4   789.47623    4  4  1   741.16225 21.5   789.47543
  3  2  1   772.54438 89.1   789.57330    4  4  1   741.26044 76.2   789.57362
  3  2  1   772.66179 82.3   789.69071    4  4  1   741.37762 55.3   789.69080
  3  2  1   772.79186 59.4   789.82078    4  4  1   741.50707 80.6   789.82025
  3  2  1   772.82897 78.1   789.85789    4  4  1   741.54519 37.2   789.85837
  3  2  1   772.83434 67.2   789.86326    4  4  1   741.55048 76.9   789.86366
  3  2  1   772.84952 87.4   789.87844    4  4  1   741.56503 11.8   789.87821
  3  2  1   772.88133 87.4   789.91025    4  4  1   741.59714 88.7   789.91032
  3  2  1   772.93834 89.9   789.96726    4  4  1   741.65340 37.1   789.96658
  3  2  1   772.96197 26.9   789.99089    4  4  1   741.67723 89.8   789.99041
  3  2  1   772.96703 74.3   789.99595    4  4  1   741.68300 89.9   789.99618
  3  2  1   773.00734 57.8   790.03626    4  4  1   741.72347 70.4   790.03665
  3  2  1   773.06955 88.8   790.09847    4  4  1   741.78585 67.1   790.09903
  3  2  1   773.10769 75.0   790.13661    4  4  1   741.82266 84.0   790.13584
  3  2  1   773.17907 55.6   790.20799    4  4  1   741.89580 45.3   790.20898

 Searching   4  3  2 near    794.82401
 No   1:   3  2  2       16.97774  reg   776.846 -   778.846
 No   2:   4  2  2       22.72108  reg   771.103 -   773.103
 No   3:   5  4  2       55.33476  reg   738.489 -   740.489
  3  2  2   776.87357 86.5   793.85131    5  4  2   738.51675 51.5   793.85151
  3  2  2   776.99163 79.3   793.96937    4  2  2   771.24732 89.7   793.96840
  3  2  2   777.02315 79.3   794.00089    4  2  2   771.27924 79.4   794.00032
                                          5  4  2   738.66585 73.5   794.00061
  3  2  2   777.08120 89.8   794.05894    4  2  2   771.33700 63.5   794.05808
  3  2  2   777.09190 18.4   794.06964    4  2  2   771.34777 85.1   794.06885
  3  2  2   777.10873 45.8   794.08647    5  4  2   738.75207 70.3   794.08683
  3  2  2   777.11490 55.1   794.09264    4  2  2   771.37197 72.1   794.09305
                                          5  4  2   738.75771 85.0   794.09247
  3  2  2   777.14644 79.2   794.12418    4  2  2   771.40252 88.9   794.12360
                                          5  4  2   738.78853 79.7   794.12329
  3  2  2   777.24732 51.9   794.22506    5  4  2   738.89013 87.7   794.22489
  3  2  2   777.26671 84.0   794.24445    5  4  2   738.90997 43.5   794.24473
  3  2  2   777.29449 77.2   794.27223    5  4  2   738.93839 86.6   794.27315
  3  2  2   777.35108 88.7   794.32882    5  4  2   738.99466 49.0   794.32942
  3  2  2   777.36429 88.5   794.34203    4  2  2   771.62043 88.9   794.34151
                                          5  4  2   739.00669 57.5   794.34145
  3  2  2   777.36958 17.3   794.34732    5  4  2   739.01342 78.9   794.34818
  3  2  2   777.39919 80.5   794.37693    4  2  2   771.65549 79.0   794.37657
  3  2  2   777.41839 60.3   794.39613    4  2  2   771.67459 65.5   794.39567
  3  2  2   777.42808 75.2   794.40582    4  2  2   771.68445 88.4   794.40553
  3  2  2   777.46704 71.5   794.44478    5  4  2   739.11019 89.3   794.44495
  3  2  2   777.50560 87.3   794.48334    5  4  2   739.14894 70.8   794.48370
  3  2  2   777.51531 87.4   794.49305    4  2  2   771.77272 79.8   794.49380
  3  2  2   777.53457 88.1   794.51231    4  2  2   771.79142 78.0   794.51250
  3  2  2   777.55691 88.2   794.53465    5  4  2   739.19930 14.7   794.53406
  3  2  2   777.56136 84.9   794.53910    5  4  2   739.20450 68.0   794.53926
  3  2  2   777.63043 56.9   794.60817    5  4  2   739.27376 53.9   794.60852
  3  2  2   777.66620 77.1   794.64394    4  2  2   771.92353 85.4   794.64461
  3  2  2   777.67922 87.0   794.65696    5  4  2   739.32123 86.3   794.65599
  3  2  2   777.68792 40.1   794.66566    5  4  2   739.33122 70.0   794.66598
  3  2  2   777.71581 84.1   794.69355    5  4  2   739.35829 84.0   794.69305
  3  2  2   777.74084 86.7   794.71858    4  2  2   771.99777 86.0   794.71885
  3  2  2   777.75311 86.0   794.73085    5  4  2   739.39631 46.3   794.73107
  3  2  2   777.85675 37.1   794.83449    5  4  2   739.49894 73.3   794.83370
  3  2  2   777.86655 46.3   794.84429    5  4  2   739.51043 80.5   794.84519
  3  2  2   777.88585 83.7   794.86359    5  4  2   739.52792 30.9   794.86268
  3  2  2   777.90384 55.7   794.88158    4  2  2   772.15957 86.8   794.88065
  3  2  2   777.90877 82.9   794.88651    4  2  2   772.16510 87.6   794.88618
  3  2  2   777.92956 81.1   794.90730    4  2  2   772.18577 87.1   794.90685
  3  2  2   777.93449 88.9   794.91223    4  2  2   772.19149 84.1   794.91257
  3  2  2   778.02867 43.4   795.00641    4  2  2   772.28609 72.5   795.00717
  3  2  2   778.04679 77.6   795.02453    5  4  2   739.68941 42.1   795.02417
  3  2  2   778.07191 55.9   795.04965    4  2  2   772.32874 58.1   795.04982
  3  2  2   778.08910 62.8   795.06684    4  2  2   772.34581 82.4   795.06689
  3  2  2   778.14797 89.0   795.12571    4  2  2   772.40419 85.7   795.12527
  3  2  2   778.20783 88.8   795.18557    5  4  2   739.85092 13.2   795.18568
  3  2  2   778.28854 86.8   795.26628    4  2  2   772.54438 89.1   795.26546
  3  2  2   778.31947 43.2   795.29721    4  2  2   772.57592 87.3   795.29700
  3  2  2   778.40523 87.8   795.38297    4  2  2   772.66179 82.3   795.38287
  3  2  2   778.40950 88.9   795.38724    4  2  2   772.66688 23.3   795.38796
                                          5  4  2   740.05314 71.7   795.38790
  3  2  2   778.44330 52.6   795.42104    5  4  2   740.08625 56.6   795.42101
  3  2  2   778.56185 68.4   795.53959    5  4  2   740.20419 82.7   795.53895
  3  2  2   778.61891 10.2   795.59665    5  4  2   740.26170 41.4   795.59646
  3  2  2   778.62496 88.3   795.60270    4  2  2   772.88133 87.4   795.60241
  3  2  2   778.63039 85.6   795.60813    4  2  2   772.88626 86.2   795.60734
  3  2  2   778.64914 85.7   795.62688    5  4  2   740.29218 11.7   795.62694
  3  2  2   778.67691 43.1   795.65465    5  4  2   740.32069 68.0   795.65545
  3  2  2   778.68396 53.7   795.66170    5  4  2   740.32640 64.1   795.66116
  3  2  2   778.74596 86.1   795.72370    5  4  2   740.38874 56.9   795.72350
  3  2  2   778.78078 67.8   795.75852    5  4  2   740.42431 21.3   795.75907
  3  2  2   778.80434 16.7   795.78208    5  4  2   740.44766 86.1   795.78242
  4  2  2   771.11505 83.1   793.83613    5  4  2   738.50176 58.9   793.83652
  4  2  2   771.18589 63.6   793.90697    5  4  2   738.57254 83.7   793.90730
  4  2  2   771.19595 84.7   793.91703    5  4  2   738.58193 86.2   793.91669
  4  2  2   771.20488 63.5   793.92596    5  4  2   738.59180 55.7   793.92656
  4  2  2   771.21355 54.0   793.93463    5  4  2   738.59929 66.2   793.93405
  4  2  2   771.27924 79.4   794.00032    5  4  2   738.66585 73.5   794.00061
  4  2  2   771.37197 72.1   794.09305    5  4  2   738.75771 85.0   794.09247
  4  2  2   771.38000 77.9   794.10108    5  4  2   738.76728 16.5   794.10204
  4  2  2   771.38759 54.3   794.10867    5  4  2   738.77304 73.1   794.10780
  4  2  2   771.39773 76.1   794.11881    5  4  2   738.78464 81.6   794.11940
  4  2  2   771.40252 88.9   794.12360    5  4  2   738.78853 79.7   794.12329
  4  2  2   771.43167 61.6   794.15275    5  4  2   738.81737 76.7   794.15213
  4  2  2   771.48809 89.4   794.20917    5  4  2   738.87489 56.5   794.20965
  4  2  2   771.49306 75.8   794.21414    5  4  2   738.88014 88.0   794.21490
  4  2  2   771.58086 89.6   794.30194    5  4  2   738.96735 55.3   794.30211
  4  2  2   771.58688 46.2   794.30796    5  4  2   738.97255 84.4   794.30731
  4  2  2   771.62043 88.9   794.34151    5  4  2   739.00669 57.5   794.34145
  4  2  2   771.70848 89.2   794.42956    5  4  2   739.09402 86.3   794.42878
  4  2  2   771.71890 41.1   794.43998    5  4  2   739.10459 74.2   794.43935
  4  2  2   771.73718 81.3   794.45826    5  4  2   739.12332 55.2   794.45808
  4  2  2   771.74264 62.1   794.46372    5  4  2   739.12865 77.2   794.46341
  4  2  2   771.77272 79.8   794.49380    5  4  2   739.15990 58.2   794.49466
  4  2  2   771.93876 79.4   794.65984    5  4  2   739.32570 81.5   794.66046
  4  2  2   771.96274 73.6   794.68382    5  4  2   739.34876 88.8   794.68352
  4  2  2   772.01595 82.3   794.73703    5  4  2   739.40271 66.1   794.73747
  4  2  2   772.09074 89.9   794.81182    5  4  2   739.47611 88.1   794.81087
  4  2  2   772.10010 86.8   794.82119    5  4  2   739.48685 66.6   794.82161
  4  2  2   772.30238 82.7   795.02346    5  4  2   739.68941 42.1   795.02417
  4  2  2   772.43370 65.0   795.15478    5  4  2   739.81970 18.9   795.15446
  4  2  2   772.44731 59.4   795.16839    5  4  2   739.83290 12.9   795.16766
  4  2  2   772.52839 87.8   795.24947    5  4  2   739.91463 76.9   795.24939
  4  2  2   772.60117 89.0   795.32225    5  4  2   739.98675 57.1   795.32151
  4  2  2   772.66688 23.3   795.38796    5  4  2   740.05314 71.7   795.38790
  4  2  2   772.79746 66.4   795.51854    5  4  2   740.18409 65.0   795.51885
  4  2  2   772.84440 85.4   795.56548    5  4  2   740.23055 58.4   795.56531
  4  2  2   772.96197 26.9   795.68305    5  4  2   740.34872 79.8   795.68348
  4  2  2   773.01834 87.0   795.73942    5  4  2   740.40506 70.1   795.73982
  4  2  2   773.02412 26.0   795.74520    5  4  2   740.41064 87.9   795.74540
  4  2  2   773.08115 82.9   795.80223    5  4  2   740.46737 88.9   795.80213

 Searching   5  3  3 near    801.85448
 No   1:   4  2  3       22.56924  reg   778.285 -   780.285
 No   2:   5  2  3       29.89272  reg   770.962 -   772.962
 No   3:   6  4  3       63.76783  reg   737.087 -   739.087
  4  2  3   778.32745 16.7   800.89669    6  4  3   737.12885 61.3   800.89668
  4  2  3   778.33780 82.5   800.90704    6  4  3   737.13836 41.7   800.90619
  4  2  3   778.36596 81.7   800.93520    6  4  3   737.16815 78.8   800.93598
  4  2  3   778.37176 38.5   800.94100    5  2  3   771.04910 86.9   800.94182
  4  2  3   778.39005 37.0   800.95929    6  4  3   737.19174 55.9   800.95957
  4  2  3   778.42847 41.1   800.99771    6  4  3   737.23031 84.2   800.99814
  4  2  3   778.44330 52.6   801.01254    6  4  3   737.24374 82.3   801.01157
  4  2  3   778.50799 66.9   801.07723    6  4  3   737.30915 86.3   801.07698
  4  2  3   778.59885 81.5   801.16809    6  4  3   737.40019 83.6   801.16802
  4  2  3   778.64914 85.7   801.21838    6  4  3   737.45028 62.6   801.21811
  4  2  3   778.66012 79.3   801.22936    5  2  3   771.33700 63.5   801.22972
  4  2  3   778.70370 81.3   801.27294    5  2  3   771.38000 77.9   801.27272
  4  2  3   778.72660 17.1   801.29584    5  2  3   771.40252 88.9   801.29524
  4  2  3   778.76013 89.1   801.32937    5  2  3   771.43638 76.4   801.32910
  4  2  3   778.76978 83.4   801.33902    5  2  3   771.44676 88.6   801.33948
  4  2  3   778.78609 52.2   801.35533    6  4  3   737.58737 82.1   801.35520
  4  2  3   778.79565 55.4   801.36489    5  2  3   771.47277 59.1   801.36549
  4  2  3   778.80434 16.7   801.37358    6  4  3   737.60540 86.2   801.37323
  4  2  3   778.84551 86.9   801.41475    5  2  3   771.52142 85.7   801.41414
  4  2  3   778.86143 72.2   801.43067    6  4  3   737.66258 67.2   801.43041
  4  2  3   778.91232 87.1   801.48156    6  4  3   737.71347 12.2   801.48130
  4  2  3   778.94411 49.9   801.51335    5  2  3   771.62043 88.9   801.51315
  4  2  3   778.99731 76.0   801.56655    5  2  3   771.67459 65.5   801.56731
  4  2  3   779.06151 82.9   801.63076    5  2  3   771.73718 81.3   801.62990
  4  2  3   779.07075 78.7   801.63999    5  2  3   771.74739 87.6   801.64011
  4  2  3   779.09547 84.8   801.66471    5  2  3   771.77272 79.8   801.66544
  4  2  3   779.10516 87.9   801.67440    6  4  3   737.90628 80.9   801.67411
  4  2  3   779.10927 56.1   801.67851    5  2  3   771.78528 18.2   801.67800
                                          6  4  3   737.91074 89.1   801.67857
  4  2  3   779.11430 86.3   801.68354    5  2  3   771.79142 78.0   801.68414
  4  2  3   779.26255 81.0   801.83179    5  2  3   771.93876 79.4   801.83148
                                          6  4  3   738.06419 56.5   801.83202
  4  2  3   779.40355 80.3   801.97279    6  4  3   738.20531 87.8   801.97314
  4  2  3   779.44057 83.3   802.00981    5  2  3   772.11669 41.5   802.00941
  4  2  3   779.44710 61.2   802.01634    6  4  3   738.24807 24.9   802.01590
  4  2  3   779.50592 80.3   802.07516    6  4  3   738.30711 31.4   802.07494
  4  2  3   779.54803 84.0   802.11727    6  4  3   738.34896 85.6   802.11679
  4  2  3   779.55624 24.1   802.12548    5  2  3   772.23269 89.1   802.12541
  4  2  3   779.61806 11.0   802.18730    6  4  3   738.41976 66.3   802.18759
  4  2  3   779.64340 75.0   802.21264    6  4  3   738.44525 85.6   802.21308
  4  2  3   779.73063 88.6   802.29987    6  4  3   738.53176 73.3   802.29959
  4  2  3   779.81358 83.7   802.38282    5  2  3   772.48957 87.4   802.38229
                                          6  4  3   738.61589 29.7   802.38372
  4  2  3   779.82677 71.7   802.39601    6  4  3   738.62752 60.7   802.39535
  4  2  3   779.85263 74.6   802.42187    5  2  3   772.52839 87.8   802.42111
  4  2  3   779.89311 84.7   802.46235    5  2  3   772.57042 62.3   802.46314
  4  2  3   779.91124 29.9   802.48048    6  4  3   738.71205 89.6   802.47988
  4  2  3   779.93108 20.7   802.50032    6  4  3   738.73308 54.0   802.50091
  4  2  3   779.95016 81.5   802.51940    5  2  3   772.62671 87.6   802.51943
                                          6  4  3   738.75207 70.3   802.51990
  4  2  3   779.95660 27.5   802.52584    6  4  3   738.75771 85.0   802.52554
  4  2  3   779.98664 87.5   802.55588    6  4  3   738.78853 79.7   802.55636
  4  2  3   780.01621 74.6   802.58545    6  4  3   738.81737 76.7   802.58520
  4  2  3   780.07299 68.0   802.64223    6  4  3   738.87489 56.5   802.64272
  4  2  3   780.12134 68.8   802.69058    5  2  3   772.79746 66.4   802.69018
  4  2  3   780.19059 59.6   802.75983    5  2  3   772.86785 89.6   802.76057
  4  2  3   780.21059 84.9   802.77983    5  2  3   772.88626 86.2   802.77898
  4  2  3   780.21705 63.3   802.78629    6  4  3   739.01797 39.2   802.78580
  5  2  3   770.96681 83.2   800.85953    6  4  3   737.09188 62.6   800.85971
  5  2  3   771.03410 83.2   800.92682    6  4  3   737.15847 87.9   800.92630
  5  2  3   771.04421 70.0   800.93693    6  4  3   737.16815 78.8   800.93598
  5  2  3   771.07856 81.8   800.97128    6  4  3   737.20269 55.7   800.97052
  5  2  3   771.10045 82.3   800.99317    6  4  3   737.22437 49.6   800.99220
  5  2  3   771.10619 72.8   800.99891    6  4  3   737.23031 84.2   800.99814
  5  2  3   771.15908 88.5   801.05180    6  4  3   737.28437 89.5   801.05220
  5  2  3   771.28486 84.2   801.17758    6  4  3   737.41066 88.1   801.17849
  5  2  3   771.33185 34.0   801.22457    6  4  3   737.45732 49.7   801.22515
  5  2  3   771.34266 84.8   801.23538    6  4  3   737.46744 17.0   801.23527
  5  2  3   771.58086 89.6   801.47358    6  4  3   737.70550 73.7   801.47333
  5  2  3   771.78528 18.2   801.67800    6  4  3   737.91074 89.1   801.67857
  5  2  3   771.92353 85.4   801.81625    6  4  3   738.04757 50.6   801.81540
  5  2  3   771.93876 79.4   801.83148    6  4  3   738.06419 56.5   801.83202
  5  2  3   772.00304 84.9   801.89576    6  4  3   738.12818 83.6   801.89601
  5  2  3   772.11052 18.0   802.00324    6  4  3   738.23569 25.8   802.00352
  5  2  3   772.11669 41.5   802.00941    6  4  3   738.24086 82.1   802.00869
  5  2  3   772.12977 57.6   802.02249    6  4  3   738.25490 86.4   802.02273
  5  2  3   772.13418 83.3   802.02690    6  4  3   738.25985 81.3   802.02768
  5  2  3   772.25042 15.6   802.14314    6  4  3   738.37467 87.5   802.14250
  5  2  3   772.26052 83.8   802.15324    6  4  3   738.38557 65.1   802.15340
  5  2  3   772.27926 12.4   802.17198    6  4  3   738.40427 43.5   802.17210
  5  2  3   772.39255 42.9   802.28527    6  4  3   738.51675 51.5   802.28458
  5  2  3   772.44731 59.4   802.34003    6  4  3   738.57254 83.7   802.34037
  5  2  3   772.46684 88.8   802.35956    6  4  3   738.59180 55.7   802.35963
  5  2  3   772.60117 89.0   802.49389    6  4  3   738.72660 79.8   802.49443
  5  2  3   772.62671 87.6   802.51943    6  4  3   738.75207 70.3   802.51990
  5  2  3   772.75470 66.6   802.64742    6  4  3   738.88014 88.0   802.64797
  5  2  3   772.78591 89.8   802.67863    6  4  3   738.90997 43.5   802.67780
  5  2  3   772.82897 78.1   802.72169    6  4  3   738.95320 78.6   802.72103
  5  2  3   772.88133 87.4   802.77405    6  4  3   739.00669 57.5   802.77452
  5  2  3   772.89918 60.1   802.79190    6  4  3   739.02377 40.7   802.79160

 Searching   6  3  4 near    810.29940
 No   1:   5  2  4       29.54562  reg   779.754 -   781.754
 No   2:   6  2  4       38.57011  reg   770.729 -   772.729
 No   3:   7  4  4       73.61611  reg   735.683 -   737.683
  5  2  4   779.82003 64.7   809.36565    6  2  4   770.79628 20.5   809.36639
  5  2  4   779.95016 81.5   809.49578    7  4  4   735.88019 11.8   809.49630
  5  2  4   779.96267 88.2   809.50829    6  2  4   770.93758 78.9   809.50769
  5  2  4   779.96845 32.7   809.51407    7  4  4   735.89853 84.9   809.51464
  5  2  4   780.07299 68.0   809.61861    6  2  4   771.04910 86.9   809.61921
  5  2  4   780.16383 89.1   809.70945    6  2  4   771.14000 82.8   809.71011
  5  2  4   780.21059 84.9   809.75621    6  2  4   771.18589 63.6   809.75600
                                          7  4  4   736.13985 76.6   809.75596
  5  2  4   780.28206 83.1   809.82768    6  2  4   771.25667 85.3   809.82678
  5  2  4   780.30415 76.2   809.84977    6  2  4   771.27924 79.4   809.84935
  5  2  4   780.32290 33.7   809.86852    6  2  4   771.29917 76.8   809.86928
  5  2  4   780.35190 41.7   809.89752    6  2  4   771.32776 17.3   809.89787
                                          7  4  4   736.28235 88.9   809.89846
  5  2  4   780.39586 88.0   809.94148    6  2  4   771.37197 72.1   809.94208
                                          7  4  4   736.32590 80.4   809.94201
  5  2  4   780.42226 80.2   809.96788    6  2  4   771.39773 76.1   809.96784
  5  2  4   780.50149 66.0   810.04711    6  2  4   771.47793 51.2   810.04804
  5  2  4   780.51276 70.7   810.05838    6  2  4   771.48809 89.4   810.05820
  5  2  4   780.52261 79.0   810.06823    6  2  4   771.49749 78.0   810.06760
  5  2  4   780.54674 88.3   810.09236    6  2  4   771.52142 85.7   810.09153
  5  2  4   780.64583 69.8   810.19145    6  2  4   771.62043 88.9   810.19054
  5  2  4   780.66813 89.0   810.21375    6  2  4   771.64441 68.1   810.21452
  5  2  4   780.67905 87.5   810.22467    6  2  4   771.65549 79.0   810.22560
  5  2  4   780.68486 87.4   810.23048    7  4  4   736.61508 51.8   810.23119
  5  2  4   780.75175 53.2   810.29737    6  2  4   771.72753 77.1   810.29764
  5  2  4   780.85015 72.5   810.39577    7  4  4   736.77928 60.3   810.39539
  5  2  4   780.87821 89.2   810.42383    7  4  4   736.80779 71.9   810.42390
  5  2  4   780.94403 59.5   810.48965    7  4  4   736.87453 58.5   810.49064
  5  2  4   780.95477 84.4   810.50039    7  4  4   736.88331 83.8   810.49942
  5  2  4   781.09393 81.6   810.63955    7  4  4   737.02323 72.8   810.63934
  5  2  4   781.09845 84.9   810.64407    7  4  4   737.02888 80.6   810.64499
  5  2  4   781.11449 33.0   810.66011    6  2  4   772.09074 89.9   810.66085
                                          7  4  4   737.04372 35.5   810.65983
  5  2  4   781.14247 86.7   810.68809    7  4  4   737.07295 86.3   810.68906
  5  2  4   781.16184 39.1   810.70746    7  4  4   737.09188 62.6   810.70799
  5  2  4   781.20821 36.5   810.75383    7  4  4   737.13836 41.7   810.75447
  5  2  4   781.26919 64.3   810.81481    6  2  4   772.24418 89.6   810.81429
  5  2  4   781.27396 86.2   810.81958    6  2  4   772.25042 15.6   810.82053
                                          7  4  4   737.20269 55.7   810.81880
  5  2  4   781.31507 61.9   810.86069    7  4  4   737.24374 82.3   810.85985
  5  2  4   781.36540 79.1   810.91102    7  4  4   737.29447 70.6   810.91058
  5  2  4   781.38485 89.4   810.93047    7  4  4   737.31472 88.8   810.93083
  5  2  4   781.40522 41.3   810.95084    7  4  4   737.33567 80.3   810.95178
  5  2  4   781.43508 17.0   810.98070    6  2  4   772.40995 28.9   810.98006
  5  2  4   781.46410 82.1   811.00972    6  2  4   772.44039 84.7   811.01050
                                          7  4  4   737.39333 47.2   811.00944
  5  2  4   781.49688 88.7   811.04250    6  2  4   772.47190 79.3   811.04201
  5  2  4   781.50625 88.8   811.05187    7  4  4   737.43620 59.4   811.05231
  5  2  4   781.61532 40.7   811.16094    6  2  4   772.59077 71.7   811.16088
                                          7  4  4   737.54468 73.4   811.16079
  5  2  4   781.62560 31.2   811.17122    6  2  4   772.60117 89.0   811.17128
  5  2  4   781.63133 86.3   811.17695    6  2  4   772.60627 82.7   811.17638
  5  2  4   781.63605 88.7   811.18167    6  2  4   772.61077 42.2   811.18088
  5  2  4   781.65625 48.0   811.20187    6  2  4   772.63162 63.3   811.20173
  5  2  4   781.68581 77.3   811.23143    6  2  4   772.66179 82.3   811.23190
  5  2  4   781.74768 75.1   811.29330    7  4  4   737.67717 65.9   811.29328
  5  2  4   781.75814 77.0   811.30376    6  2  4   772.73454 84.9   811.30465
  6  2  4   770.72114 73.7   809.29125    7  4  4   735.67538 88.1   809.29149
  6  2  4   770.76479 75.5   809.33490    7  4  4   735.71902 59.1   809.33513
  6  2  4   770.83531 86.8   809.40542    7  4  4   735.78877 82.9   809.40488
  6  2  4   770.96681 83.2   809.53692    7  4  4   735.92022 87.4   809.53633
  6  2  4   770.98682 62.0   809.55693    7  4  4   735.94019 63.5   809.55630
  6  2  4   771.02392 57.1   809.59403    7  4  4   735.97796 65.3   809.59407
  6  2  4   771.14845 73.8   809.71856    7  4  4   736.10174 83.8   809.71785
  6  2  4   771.18589 63.6   809.75600    7  4  4   736.13985 76.6   809.75596
  6  2  4   771.20488 63.5   809.77499    7  4  4   736.15907 28.1   809.77518
  6  2  4   771.24228 83.2   809.81239    7  4  4   736.19656 77.2   809.81267
  6  2  4   771.32776 17.3   809.89787    7  4  4   736.28235 88.9   809.89846
  6  2  4   771.33700 63.5   809.90711    7  4  4   736.29170 81.5   809.90781
  6  2  4   771.34266 84.8   809.91277    7  4  4   736.29591 88.1   809.91202
  6  2  4   771.34777 85.1   809.91788    7  4  4   736.30165 40.4   809.91776
  6  2  4   771.37197 72.1   809.94208    7  4  4   736.32590 80.4   809.94201
  6  2  4   771.43638 76.4   810.00649    7  4  4   736.39009 55.6   810.00620
  6  2  4   771.44676 88.6   810.01687    7  4  4   736.40086 88.8   810.01697
  6  2  4   771.50627 85.8   810.07638    7  4  4   736.46094 61.6   810.07705
  6  2  4   771.52634 63.3   810.09645    7  4  4   736.48105 87.8   810.09716
  6  2  4   771.54156 12.0   810.11167    7  4  4   736.49649 68.6   810.11260
  6  2  4   771.77272 79.8   810.34283    7  4  4   736.72675 41.7   810.34286
  6  2  4   771.83049 87.2   810.40060    7  4  4   736.78528 87.5   810.40139
  6  2  4   771.87370 64.4   810.44381    7  4  4   736.82842 61.5   810.44453
  6  2  4   771.98820 67.1   810.55831    7  4  4   736.94293 34.0   810.55904
  6  2  4   772.00304 84.9   810.57315    7  4  4   736.95666 50.3   810.57277
  6  2  4   772.04385 60.2   810.61396    7  4  4   736.99688 55.1   810.61299
  6  2  4   772.15957 86.8   810.72968    7  4  4   737.11341 78.8   810.72952
  6  2  4   772.20443 77.1   810.77454    7  4  4   737.15847 87.9   810.77458
  6  2  4   772.26052 83.8   810.83063    7  4  4   737.21420 80.5   810.83031
  6  2  4   772.35580 26.0   810.92591    7  4  4   737.30915 86.3   810.92526
  6  2  4   772.39255 42.9   810.96266    7  4  4   737.34598 68.1   810.96209
  6  2  4   772.47190 79.3   811.04201    7  4  4   737.42510 19.7   811.04121
  6  2  4   772.48957 87.4   811.05968    7  4  4   737.44264 70.9   811.05875
  6  2  4   772.52839 87.8   811.09850    7  4  4   737.48221 78.8   811.09832
  6  2  4   772.53747 81.0   811.10758    7  4  4   737.49197 88.8   811.10808
  6  2  4   772.54438 89.1   811.11449    7  4  4   737.49788 76.8   811.11399
  6  2  4   772.55965 84.6   811.12976    7  4  4   737.51431 85.4   811.13042
  6  2  4   772.57042 62.3   811.14053    7  4  4   737.52520 89.4   811.14131
  6  2  4   772.58597 82.4   811.15608    7  4  4   737.53933 71.8   811.15544
  6  2  4   772.59077 71.7   811.16088    7  4  4   737.54468 73.4   811.16079
  6  2  4   772.61077 42.2   811.18088    7  4  4   737.56429 79.1   811.18040

 Searching   7  3  5 near    820.16042
 No   1:   6  2  5       37.89832  reg   781.262 -   783.262
 No   2:   7  2  5       48.77161  reg   770.389 -   772.389
 No   3:   8  4  5       84.88362  reg   734.277 -   736.277
  6  2  5   781.27396 86.2   819.17228    7  2  5   770.39999 32.4   819.17160
  6  2  5   781.29974 82.4   819.19806    8  4  5   734.31508 21.7   819.19870
  6  2  5   781.32525 86.4   819.22357    8  4  5   734.33931 57.0   819.22293
  6  2  5   781.34927 89.7   819.24759    7  2  5   770.47540 69.4   819.24701
  6  2  5   781.35878 48.7   819.25710    7  2  5   770.48516 84.4   819.25677
  6  2  5   781.50625 88.8   819.40457    8  4  5   734.52190 57.0   819.40552
  6  2  5   781.54006 28.7   819.43838    7  2  5   770.66675 75.2   819.43836
  6  2  5   781.59676 89.7   819.49508    8  4  5   734.61221 81.8   819.49583
  6  2  5   781.62080 65.5   819.51912    7  2  5   770.74683 84.7   819.51844
  6  2  5   781.62560 31.2   819.52392    7  2  5   770.75310 36.1   819.52471
  6  2  5   781.68581 77.3   819.58413    8  4  5   734.70138 54.6   819.58500
  6  2  5   781.74768 75.1   819.64600    8  4  5   734.76302 72.3   819.64664
  6  2  5   781.75814 77.0   819.65646    8  4  5   734.77381 88.9   819.65743
  6  2  5   781.80453 86.9   819.70285    8  4  5   734.81973 85.1   819.70335
  6  2  5   781.81028 86.2   819.70860    7  2  5   770.93758 78.9   819.70919
                                          8  4  5   734.82403 88.8   819.70765
  6  2  5   781.83402 52.3   819.73234    7  2  5   770.95984 81.3   819.73145
  6  2  5   781.84002 57.2   819.73834    7  2  5   770.96681 83.2   819.73842
  6  2  5   781.90665 71.3   819.80497    7  2  5   771.03410 83.2   819.80571
  6  2  5   781.91128 62.4   819.80960    8  4  5   734.92562 78.4   819.80924
  6  2  5   781.93211 54.6   819.83043    8  4  5   734.94596 14.8   819.82958
  6  2  5   781.93528 54.6   819.83360    8  4  5   734.95065 25.7   819.83427
  6  2  5   781.94230 82.0   819.84062    8  4  5   734.95659 72.6   819.84021
  6  2  5   782.00667 29.5   819.90499    8  4  5   735.02180 74.2   819.90542
  6  2  5   782.04098 40.9   819.93930    7  2  5   771.16814 83.5   819.93975
  6  2  5   782.05110 34.6   819.94942    8  4  5   735.06601 43.7   819.94963
  6  2  5   782.06052 58.2   819.95884    8  4  5   735.07604 88.3   819.95966
  6  2  5   782.13892 82.3   820.03724    7  2  5   771.26608 51.6   820.03769
  6  2  5   782.17759 76.8   820.07591    8  4  5   735.19171 48.5   820.07533
  6  2  5   782.20503 81.8   820.10335    7  2  5   771.33185 34.0   820.10346
  6  2  5   782.24441 12.3   820.14273    7  2  5   771.37197 72.1   820.14358
  6  2  5   782.26345 86.6   820.16177    8  4  5   735.27738 24.5   820.16100
  6  2  5   782.29957 87.6   820.19789    8  4  5   735.31501 28.3   820.19862
  6  2  5   782.32554 76.3   820.22386    7  2  5   771.45316 19.8   820.22477
  6  2  5   782.35026 40.8   820.24858    7  2  5   771.47793 51.2   820.24954
  6  2  5   782.37171 47.0   820.27003    7  2  5   771.49749 78.0   820.26910
  6  2  5   782.40025 70.7   820.29857    7  2  5   771.52634 63.3   820.29795
  6  2  5   782.44289 50.4   820.34121    7  2  5   771.56950 73.8   820.34111
  6  2  5   782.46338 88.3   820.36170    8  4  5   735.47772 88.5   820.36134
  6  2  5   782.47820 72.3   820.37652    8  4  5   735.49327 82.3   820.37689
  6  2  5   782.48791 60.8   820.38623    8  4  5   735.50298 14.9   820.38660
  6  2  5   782.49393 76.8   820.39225    7  2  5   771.62043 88.9   820.39204
  6  2  5   782.54747 87.6   820.44579    7  2  5   771.67459 65.5   820.44620
  6  2  5   782.55801 84.1   820.45633    7  2  5   771.68445 88.4   820.45606
  6  2  5   782.70365 89.2   820.60197    7  2  5   771.83049 87.2   820.60210
                                          8  4  5   735.71902 59.1   820.60264
  6  2  5   782.79587 89.8   820.69419    7  2  5   771.92353 85.4   820.69514
  6  2  5   782.82817 87.5   820.72649    8  4  5   735.84287 42.6   820.72649
  6  2  5   782.83632 79.9   820.73464    7  2  5   771.96274 73.6   820.73435
  6  2  5   782.87721 77.5   820.77553    7  2  5   772.00304 84.9   820.77465
  6  2  5   782.91671 39.1   820.81503    7  2  5   772.04385 60.2   820.81546
  6  2  5   782.94921 78.7   820.84753    8  4  5   735.96356 61.0   820.84718
  6  2  5   782.96348 66.1   820.86180    7  2  5   772.09074 89.9   820.86235
                                          8  4  5   735.97796 65.3   820.86158
  6  2  5   782.97816 63.2   820.87648    7  2  5   772.10574 39.1   820.87735
  6  2  5   783.00840 89.1   820.90672    7  2  5   772.13418 83.3   820.90579
  6  2  5   783.05426 19.0   820.95258    7  2  5   772.18028 54.8   820.95189
  6  2  5   783.10157 88.5   820.99989    8  4  5   736.11627 41.5   820.99989
  6  2  5   783.10678 89.9   821.00510    7  2  5   772.23269 89.1   821.00430
  6  2  5   783.17227 89.2   821.07059    8  4  5   736.18676 87.2   821.07038
  6  2  5   783.19572 87.8   821.09404    7  2  5   772.32178 89.7   821.09339
  6  2  5   783.20603 85.5   821.10435    8  4  5   736.22145 66.5   821.10507
  6  2  5   783.21126 38.2   821.10958    8  4  5   736.22649 87.6   821.11011
  7  2  5   770.41944 88.5   819.19105    8  4  5   734.30663 88.3   819.19025
  7  2  5   770.45985 87.1   819.23146    8  4  5   734.34758 13.4   819.23120
  7  2  5   770.52884 78.4   819.30045    8  4  5   734.41624 80.5   819.29986
  7  2  5   770.57449 79.5   819.34610    8  4  5   734.46190 59.6   819.34552
  7  2  5   770.74080 51.7   819.51241    8  4  5   734.62846 73.9   819.51208
  7  2  5   770.75919 79.2   819.53080    8  4  5   734.64797 89.4   819.53159
  7  2  5   770.80128 62.3   819.57289    8  4  5   734.68834 72.3   819.57196
  7  2  5   770.89850 69.9   819.67011    8  4  5   734.78738 85.8   819.67100
  7  2  5   770.94834 70.9   819.71995    8  4  5   734.83646 13.0   819.72008
  7  2  5   770.97117 68.6   819.74278    8  4  5   734.85886 34.7   819.74248
  7  2  5   771.02392 57.1   819.79553    8  4  5   734.91172 81.3   819.79534
  7  2  5   771.07856 81.8   819.85017    8  4  5   734.96567 66.7   819.84929
  7  2  5   771.10045 82.3   819.87206    8  4  5   734.98754 38.0   819.87116
  7  2  5   771.11505 83.1   819.88666    8  4  5   735.00283 89.8   819.88645
  7  2  5   771.13458 20.2   819.90619    8  4  5   735.02180 74.2   819.90542
  7  2  5   771.14000 82.8   819.91161    8  4  5   735.02732 16.0   819.91094
  7  2  5   771.20488 63.5   819.97649    8  4  5   735.09299 18.1   819.97661
  7  2  5   771.22798 58.6   819.99959    8  4  5   735.11675 84.1   820.00037
  7  2  5   771.24732 89.7   820.01893    8  4  5   735.13520 30.0   820.01882
  7  2  5   771.28486 84.2   820.05647    8  4  5   735.17306 46.2   820.05668
  7  2  5   771.31366 13.7   820.08527    8  4  5   735.20181 66.5   820.08543
  7  2  5   771.32776 17.3   820.09937    8  4  5   735.21675 63.8   820.10037
  7  2  5   771.38000 77.9   820.15161    8  4  5   735.26750 73.4   820.15112
  7  2  5   771.43638 76.4   820.20799    8  4  5   735.32399 72.8   820.20761
  7  2  5   771.58086 89.6   820.35247    8  4  5   735.46976 69.3   820.35338
  7  2  5   771.73718 81.3   820.50879    8  4  5   735.62496 79.9   820.50858
  7  2  5   771.74739 87.6   820.51900    8  4  5   735.63624 40.1   820.51986
  7  2  5   771.77272 79.8   820.54433    8  4  5   735.66062 34.2   820.54424
  7  2  5   771.81057 86.2   820.58218    8  4  5   735.69788 70.1   820.58150
  7  2  5   771.83049 87.2   820.60210    8  4  5   735.71902 59.1   820.60264
  7  2  5   772.01595 82.3   820.78756    8  4  5   735.90427 71.6   820.78789
  7  2  5   772.03269 36.9   820.80430    8  4  5   735.92022 87.4   820.80384
  7  2  5   772.09074 89.9   820.86235    8  4  5   735.97796 65.3   820.86158
  7  2  5   772.26052 83.8   821.03213    8  4  5   736.14891 37.7   821.03253
  7  2  5   772.36737 89.0   821.13898    8  4  5   736.25540 86.8   821.13902

 Searching   8  3  6 near    831.43746
 No   1:   7  2  6       47.61722  reg   782.820 -   784.820
 No   2:   8  2  6       60.50331  reg   769.934 -   771.934
 No   3:   9  4  6       97.57445  reg   732.863 -   734.863
  7  2  6   782.82817 87.5   830.44539    8  2  6   769.94195 83.2   830.44526
  7  2  6   782.88800 88.0   830.50522    8  2  6   770.00227 20.2   830.50558
                                          9  4  6   732.93162 13.0   830.50607
  7  2  6   782.90700 39.8   830.52422    9  4  6   732.95043 44.2   830.52488
  7  2  6   782.94921 78.7   830.56643    8  2  6   770.06318 75.4   830.56649
                                          9  4  6   732.99289 52.7   830.56734
  7  2  6   782.99947 75.8   830.61669    8  2  6   770.11401 81.0   830.61732
  7  2  6   783.01378 12.9   830.63100    9  4  6   733.05664 71.8   830.63109
  7  2  6   783.07025 60.0   830.68747    9  4  6   733.11224 87.5   830.68669
  7  2  6   783.07655 72.7   830.69377    8  2  6   770.19012 88.6   830.69343
                                          9  4  6   733.11853 39.4   830.69298
  7  2  6   783.10157 88.5   830.71879    8  2  6   770.21565 71.0   830.71896
  7  2  6   783.12003 74.7   830.73725    9  4  6   733.16343 88.1   830.73788
  7  2  6   783.19124 88.7   830.80846    9  4  6   733.23357 87.9   830.80802
  7  2  6   783.19572 87.8   830.81294    9  4  6   733.23814 80.9   830.81259
  7  2  6   783.20603 85.5   830.82325    9  4  6   733.24848 89.5   830.82293
  7  2  6   783.21126 38.2   830.82848    9  4  6   733.25434 49.1   830.82879
  7  2  6   783.29228 89.4   830.90950    8  2  6   770.40599 87.4   830.90930
                                          9  4  6   733.33580 47.2   830.91025
  7  2  6   783.29735 72.3   830.91457    8  2  6   770.41207 66.2   830.91538
                                          9  4  6   733.34038 80.9   830.91483
  7  2  6   783.36698 89.8   830.98420    9  4  6   733.41003 59.4   830.98448
  7  2  6   783.37729 77.7   830.99451    9  4  6   733.42034 89.3   830.99479
  7  2  6   783.46047 85.0   831.07769    8  2  6   770.57449 79.5   831.07780
  7  2  6   783.48061 62.1   831.09783    8  2  6   770.59515 81.2   831.09846
                                          9  4  6   733.52382 78.7   831.09827
  7  2  6   783.54973 40.2   831.16695    9  4  6   733.59288 75.4   831.16733
  7  2  6   783.55555 89.8   831.17277    9  4  6   733.59868 82.4   831.17313
  7  2  6   783.57084 53.3   831.18806    8  2  6   770.68533 84.2   831.18864
  7  2  6   783.60805 84.7   831.22527    8  2  6   770.72114 73.7   831.22445
                                          9  4  6   733.64996 65.4   831.22441
  7  2  6   783.62958 87.4   831.24680    9  4  6   733.67150 58.1   831.24595
  7  2  6   783.63466 66.7   831.25188    9  4  6   733.67702 76.1   831.25147
  7  2  6   783.65806 56.0   831.27528    8  2  6   770.77274 87.2   831.27605
                                          9  4  6   733.70091 54.7   831.27536
  7  2  6   783.72097 41.3   831.33819    8  2  6   770.83531 86.8   831.33862
  7  2  6   783.85226 89.1   831.46948    8  2  6   770.96681 83.2   831.47012
  7  2  6   783.85752 67.9   831.47474    8  2  6   770.97117 68.6   831.47448
  7  2  6   783.87689 84.4   831.49411    9  4  6   733.92029 68.2   831.49474
  7  2  6   783.93512 82.6   831.55234    8  2  6   771.04910 86.9   831.55241
  7  2  6   784.05782 67.4   831.67504    9  4  6   734.09993 14.4   831.67438
  7  2  6   784.07259 71.6   831.68981    8  2  6   771.18589 63.6   831.68920
                                          9  4  6   734.11467 64.9   831.68912
  7  2  6   784.11469 41.3   831.73191    8  2  6   771.22798 58.6   831.73129
  7  2  6   784.13403 30.2   831.75125    8  2  6   771.24732 89.7   831.75063
  7  2  6   784.14367 77.4   831.76089    8  2  6   771.25667 85.3   831.75998
  7  2  6   784.17972 78.2   831.79694    8  2  6   771.29430 73.3   831.79761
  7  2  6   784.18437 84.2   831.80159    8  2  6   771.29917 76.8   831.80248
                                          9  4  6   734.22623 88.5   831.80068
  7  2  6   784.20063 62.6   831.81785    8  2  6   771.31366 13.7   831.81697
  7  2  6   784.25400 84.6   831.87122    9  4  6   734.29678 66.0   831.87123
  7  2  6   784.28955 85.2   831.90677    8  2  6   771.40252 88.9   831.90583
                                          9  4  6   734.33321 81.1   831.90766
  7  2  6   784.37485 84.8   831.99207    8  2  6   771.48809 89.4   831.99140
  7  2  6   784.39221 50.2   832.00943    8  2  6   771.50627 85.8   832.00958
  7  2  6   784.39925 73.1   832.01647    9  4  6   734.44191 85.3   832.01636
  7  2  6   784.40837 58.0   832.02559    8  2  6   771.52142 85.7   832.02473
  7  2  6   784.47859 51.3   832.09581    8  2  6   771.59217 83.6   832.09548
                                          9  4  6   734.52190 57.0   832.09635
  7  2  6   784.49411 86.2   832.11133    9  4  6   734.53712 85.8   832.11157
  7  2  6   784.53742 88.4   832.15464    8  2  6   771.65043 88.5   832.15374
                                          9  4  6   734.58092 82.5   832.15537
  7  2  6   784.56071 79.9   832.17793    8  2  6   771.67459 65.5   832.17790
  7  2  6   784.57092 89.5   832.18814    8  2  6   771.68445 88.4   832.18776
  7  2  6   784.57578 88.0   832.19300    8  2  6   771.68953 87.9   832.19284
  7  2  6   784.61341 70.2   832.23063    8  2  6   771.72753 77.1   832.23084
  7  2  6   784.67003 53.4   832.28725    9  4  6   734.71182 83.9   832.28627
  7  2  6   784.67745 81.5   832.29467    8  2  6   771.79142 78.0   832.29473
  7  2  6   784.72675 57.4   832.34397    9  4  6   734.76878 87.8   832.34323
  7  2  6   784.74557 38.8   832.36279    9  4  6   734.78738 85.8   832.36183
  7  2  6   784.76111 78.7   832.37833    9  4  6   734.80401 63.0   832.37846
  7  2  6   784.78023 68.8   832.39745    8  2  6   771.89404 23.9   832.39735
  8  2  6   769.93253 48.6   830.43584    9  4  6   732.86103 88.8   830.43548
  8  2  6   770.00227 20.2   830.50558    9  4  6   732.93162 13.0   830.50607
  8  2  6   770.03665 74.5   830.53996    9  4  6   732.96464 83.8   830.53909
  8  2  6   770.06318 75.4   830.56649    9  4  6   732.99289 52.7   830.56734
  8  2  6   770.19012 88.6   830.69343    9  4  6   733.11853 39.4   830.69298
  8  2  6   770.25849 54.9   830.76180    9  4  6   733.18804 87.3   830.76249
  8  2  6   770.34195 77.2   830.84526    9  4  6   733.27099 89.7   830.84544
  8  2  6   770.38459 86.1   830.88790    9  4  6   733.31415 65.9   830.88860
  8  2  6   770.40599 87.4   830.90930    9  4  6   733.33580 47.2   830.91025
  8  2  6   770.41207 66.2   830.91538    9  4  6   733.34038 80.9   830.91483
  8  2  6   770.46917 87.4   830.97248    9  4  6   733.39784 86.3   830.97229
  8  2  6   770.49960 76.1   831.00291    9  4  6   733.42776 17.3   831.00221
  8  2  6   770.51413 43.3   831.01744    9  4  6   733.44250 67.5   831.01695
  8  2  6   770.59515 81.2   831.09846    9  4  6   733.52382 78.7   831.09827
  8  2  6   770.65508 76.3   831.15839    9  4  6   733.58303 71.6   831.15748
  8  2  6   770.71463 82.0   831.21794    9  4  6   733.64446 81.0   831.21891
  8  2  6   770.72114 73.7   831.22445    9  4  6   733.64996 65.4   831.22441
  8  2  6   770.77274 87.2   831.27605    9  4  6   733.70091 54.7   831.27536
  8  2  6   770.79628 20.5   831.29959    9  4  6   733.72555 81.6   831.30000
  8  2  6   771.02392 57.1   831.52723    9  4  6   733.95334 57.1   831.52779
  8  2  6   771.03410 83.2   831.53741    9  4  6   733.96225 79.3   831.53670
  8  2  6   771.09562 63.9   831.59893    9  4  6   734.02400 30.4   831.59845
  8  2  6   771.10045 82.3   831.60376    9  4  6   734.02939 74.3   831.60384
  8  2  6   771.18589 63.6   831.68920    9  4  6   734.11467 64.9   831.68912
  8  2  6   771.22407 77.3   831.72738    9  4  6   734.15211 82.5   831.72656
  8  2  6   771.24732 89.7   831.75063    9  4  6   734.17577 54.2   831.75022
  8  2  6   771.32776 17.3   831.83107    9  4  6   734.25708 75.1   831.83153
  8  2  6   771.41784 41.5   831.92115    9  4  6   734.34758 13.4   831.92203
  8  2  6   771.45316 19.8   831.95647    9  4  6   734.38235 76.2   831.95680
  8  2  6   771.48809 89.4   831.99140    9  4  6   734.41624 80.5   831.99069
  8  2  6   771.49306 75.8   831.99637    9  4  6   734.42239 52.3   831.99684
  8  2  6   771.59217 83.6   832.09548    9  4  6   734.52190 57.0   832.09635
  8  2  6   771.71890 41.1   832.22221    9  4  6   734.64797 89.4   832.22242
  8  2  6   771.77272 79.8   832.27603    9  4  6   734.70138 54.6   832.27583
  8  2  6   771.83049 87.2   832.33380    9  4  6   734.75885 87.8   832.33330
