Range    : 1.000
Accuracy : 0.001
Control file  : C2HD3gr   
Spectrum file : s         

 Searching   3  3  0 near    751.70560
 No   1:   2  2  0       12.78833  reg   737.917 -   739.917
 No   2:   4  4  0       48.31320  reg   702.392 -   704.392
  2  2  0   737.93747 88.0   750.72580    4  4  0   702.41174 75.1   750.72494
  2  2  0   737.98125 83.7   750.76958    4  4  0   702.45728 25.4   750.77048
  2  2  0   738.05940 57.4   750.84773    4  4  0   702.53365 65.8   750.84685
  2  2  0   738.06419 56.5   750.85252    4  4  0   702.53880 82.2   750.85200
  2  2  0   738.06961 88.3   750.85794    4  4  0   702.54443 53.8   750.85763
  2  2  0   738.08284 69.8   750.87117    4  4  0   702.55882 79.6   750.87202
  2  2  0   738.24086 82.1   751.02919    4  4  0   702.71503 89.4   751.02823
  2  2  0   738.28833 67.8   751.07666    4  4  0   702.76362 89.2   751.07682
  2  2  0   738.31311 70.3   751.10144    4  4  0   702.78851 87.2   751.10171
  2  2  0   738.31832 31.1   751.10665    4  4  0   702.79412 69.0   751.10732
  2  2  0   738.36105 39.1   751.14938    4  4  0   702.83538 82.3   751.14858
  2  2  0   738.40427 43.5   751.19260    4  4  0   702.87856 79.5   751.19176
  2  2  0   738.41365 30.4   751.20198    4  4  0   702.88802 72.7   751.20122
  2  2  0   738.59929 66.2   751.38762    4  4  0   703.07357 75.6   751.38677
  2  2  0   738.71205 89.6   751.50038    4  4  0   703.18671 76.4   751.49991
  2  2  0   738.72660 79.8   751.51493    4  4  0   703.20138 79.7   751.51458
  2  2  0   738.73308 54.0   751.52141    4  4  0   703.20749 11.0   751.52069
  2  2  0   738.77874 80.3   751.56707    4  4  0   703.25332 83.3   751.56652
  2  2  0   738.78464 81.6   751.57297    4  4  0   703.25915 60.4   751.57235
  2  2  0   738.83598 76.5   751.62431    4  4  0   703.31189 77.5   751.62509
  2  2  0   738.84252 88.1   751.63085    4  4  0   703.31845 86.1   751.63165
  2  2  0   738.87489 56.5   751.66322    4  4  0   703.35056 79.9   751.66376
  2  2  0   738.88014 88.0   751.66847    4  4  0   703.35514 84.8   751.66834
  2  2  0   738.90494 41.2   751.69327    4  4  0   703.37953 79.0   751.69273
  2  2  0   739.03467 45.7   751.82300    4  4  0   703.51053 77.9   751.82373
  2  2  0   739.07867 50.8   751.86700    4  4  0   703.55284 89.2   751.86604
  2  2  0   739.12332 55.2   751.91165    4  4  0   703.59894 77.0   751.91214
  2  2  0   739.13907 44.7   751.92740    4  4  0   703.61400 86.6   751.92720
  2  2  0   739.20450 68.0   751.99283    4  4  0   703.68015 72.3   751.99335
  2  2  0   739.33865 54.8   752.12698    4  4  0   703.81473 63.0   752.12793
  2  2  0   739.36330 63.9   752.15163    4  4  0   703.83852 66.7   752.15172
  2  2  0   739.36756 84.6   752.15589    4  4  0   703.84342 78.2   752.15662
  2  2  0   739.39177 63.2   752.18010    4  4  0   703.86645 83.6   752.17965
  2  2  0   739.39631 46.3   752.18464    4  4  0   703.87117 86.5   752.18437
  2  2  0   739.49894 73.3   752.28727    4  4  0   703.97455 22.6   752.28775
  2  2  0   739.52792 30.9   752.31625    4  4  0   704.00351 87.4   752.31671
  2  2  0   739.81970 18.9   752.60803    4  4  0   704.29401 57.4   752.60721
  2  2  0   739.85092 13.2   752.63925    4  4  0   704.32690 42.5   752.64010
  2  2  0   739.86558 84.4   752.65391    4  4  0   704.34024 89.2   752.65344
  2  2  0   739.91463 76.9   752.70296    4  4  0   704.39014 81.7   752.70334

 Searching   4  3  1 near    757.32670
 No   1:   3  2  1       17.02892  reg   739.298 -   741.298
 No   2:   4  4  1       48.31318  reg   708.014 -   710.014
 No   3:   5  4  1       55.33487  reg   700.992 -   702.992
  3  2  1   739.30208 51.1   756.33100    5  4  1   700.99528 86.4   756.33015
  3  2  1   739.32570 81.5   756.35462    4  4  1   708.04071 77.1   756.35389
  3  2  1   739.34876 88.8   756.37768    4  4  1   708.06537 79.9   756.37855
  3  2  1   739.37285 53.6   756.40177    4  4  1   708.08782 87.9   756.40100
                                          5  4  1   701.06667 87.8   756.40154
  3  2  1   739.38181 38.5   756.41073    4  4  1   708.09823 57.8   756.41141
  3  2  1   739.39631 46.3   756.42523    4  4  1   708.11230 83.3   756.42548
  3  2  1   739.40271 66.1   756.43163    5  4  1   701.09733 35.0   756.43220
  3  2  1   739.44118 77.6   756.47010    4  4  1   708.15757 89.0   756.47075
  3  2  1   739.44616 79.3   756.47508    4  4  1   708.16270 76.2   756.47588
  3  2  1   739.47611 88.1   756.50503    5  4  1   701.17007 42.4   756.50494
  3  2  1   739.48685 66.6   756.51577    5  4  1   701.18162 64.7   756.51649
  3  2  1   739.54185 84.9   756.57077    4  4  1   708.25780 32.7   756.57098
                                          5  4  1   701.23505 72.9   756.56992
  3  2  1   739.57966 16.4   756.60858    4  4  1   708.29451 78.9   756.60769
  3  2  1   739.58606 75.1   756.61498    5  4  1   701.28060 56.4   756.61547
  3  2  1   739.60966 62.6   756.63858    5  4  1   701.30382 76.9   756.63869
  3  2  1   739.61459 30.8   756.64351    5  4  1   701.30854 79.0   756.64341
  3  2  1   739.63919 88.1   756.66811    5  4  1   701.33255 81.0   756.66742
  3  2  1   739.71673 58.4   756.74565    5  4  1   701.41149 81.5   756.74636
  3  2  1   739.73069 70.0   756.75961    5  4  1   701.42500 29.4   756.75987
  3  2  1   739.76048 72.5   756.78940    4  4  1   708.47679 49.9   756.78997
  3  2  1   739.76645 88.0   756.79537    4  4  1   708.48175 87.1   756.79493
  3  2  1   739.80937 44.8   756.83829    4  4  1   708.52414 29.1   756.83732
  3  2  1   739.93703 80.0   756.96595    4  4  1   708.65253 68.2   756.96571
  3  2  1   739.94764 43.7   756.97656    4  4  1   708.66368 57.7   756.97686
  3  2  1   739.95358 12.6   756.98250    4  4  1   708.66951 87.9   756.98269
  3  2  1   740.02127 12.1   757.05019    5  4  1   701.71553 84.1   757.05040
  3  2  1   740.04447 75.2   757.07339    5  4  1   701.73843 59.9   757.07330
  3  2  1   740.04986 72.2   757.07878    4  4  1   708.76578 18.2   757.07896
                                          5  4  1   701.74312 86.7   757.07799
  3  2  1   740.08625 56.6   757.11517    4  4  1   708.80181 85.8   757.11499
  3  2  1   740.23055 58.4   757.25947    5  4  1   701.92541 50.0   757.26028
  3  2  1   740.24979 86.1   757.27871    4  4  1   708.96652 85.3   757.27970
                                          5  4  1   701.94386 60.5   757.27873
  3  2  1   740.25564 64.3   757.28456    4  4  1   708.97051 75.1   757.28369
                                          5  4  1   701.94910 65.7   757.28397
  3  2  1   740.27124 83.2   757.30016    4  4  1   708.98614 89.3   757.29932
  3  2  1   740.27838 43.4   757.30730    4  4  1   708.99333 89.7   757.30651
  3  2  1   740.33556 55.5   757.36448    4  4  1   709.05159 88.3   757.36477
  3  2  1   740.36803 34.8   757.39695    4  4  1   709.08431 89.1   757.39749
  3  2  1   740.38874 56.9   757.41766    4  4  1   709.10513 87.2   757.41831
                                          5  4  1   702.08300 36.5   757.41787
  3  2  1   740.42431 21.3   757.45323    4  4  1   709.14022 73.9   757.45340
  3  2  1   740.53383 33.0   757.56275    4  4  1   709.24901 57.1   757.56219
                                          5  4  1   702.22840 82.4   757.56327
  3  2  1   740.55755 76.7   757.58647    4  4  1   709.27263 88.9   757.58581
                                          5  4  1   702.25188 85.6   757.58675
  3  2  1   740.60755 82.4   757.63647    4  4  1   709.32316 65.5   757.63634
  3  2  1   740.61663 85.6   757.64555    5  4  1   702.31162 88.8   757.64649
  3  2  1   740.62229 47.3   757.65121    5  4  1   702.31706 75.8   757.65193
  3  2  1   740.62745 68.7   757.65637    4  4  1   709.34220 15.6   757.65538
  3  2  1   740.68941 67.2   757.71833    4  4  1   709.40430 81.4   757.71748
                                          5  4  1   702.38357 80.3   757.71844
  3  2  1   740.71797 56.6   757.74689    5  4  1   702.41174 75.1   757.74661
  3  2  1   740.72317 79.2   757.75209    4  4  1   709.43843 87.9   757.75161
  3  2  1   740.76227 35.4   757.79119    5  4  1   702.45728 25.4   757.79215
  3  2  1   740.78975 83.2   757.81867    4  4  1   709.50465 78.2   757.81783
  3  2  1   740.80359 42.7   757.83251    4  4  1   709.51901 71.0   757.83219
  3  2  1   740.80908 83.3   757.83800    4  4  1   709.52430 75.5   757.83748
                                          5  4  1   702.50306 58.8   757.83793
  3  2  1   740.81415 30.5   757.84307    4  4  1   709.52942 83.1   757.84260
  3  2  1   740.86521 85.7   757.89413    5  4  1   702.55882 79.6   757.89369
  3  2  1   740.91214 40.5   757.94106    5  4  1   702.60586 69.9   757.94073
  3  2  1   740.93554 87.3   757.96446    4  4  1   709.65218 74.3   757.96536
  3  2  1   740.95198 76.5   757.98090    4  4  1   709.66715 24.6   757.98033
                                          5  4  1   702.64683 35.8   757.98170
  3  2  1   740.98068 70.3   758.00960    4  4  1   709.69656 26.0   758.00974
  3  2  1   741.00461 83.6   758.03353    4  4  1   709.72037 64.9   758.03355
  3  2  1   741.02112 88.3   758.05004    5  4  1   702.71503 89.4   758.04990
  3  2  1   741.03537 77.5   758.06429    4  4  1   709.75014 76.2   758.06332
  3  2  1   741.06363 89.7   758.09254    4  4  1   709.77941 19.4   758.09259
  3  2  1   741.06882 86.1   758.09774    5  4  1   702.76362 89.2   758.09849
  3  2  1   741.08951 89.9   758.11843    5  4  1   702.78406 86.3   758.11893
  3  2  1   741.11329 87.5   758.14221    5  4  1   702.80803 66.4   758.14290
  3  2  1   741.13188 87.1   758.16080    5  4  1   702.82598 84.4   758.16085
  3  2  1   741.16791 73.9   758.19683    4  4  1   709.88380 83.5   758.19698
  3  2  1   741.18058 58.9   758.20950    5  4  1   702.87543 75.9   758.21030
  3  2  1   741.18901 88.8   758.21793    5  4  1   702.88358 89.9   758.21845
  3  2  1   741.21631 52.7   758.24523    4  4  1   709.93142 83.0   758.24460
  3  2  1   741.23159 70.5   758.26051    4  4  1   709.94655 85.3   758.25973
  3  2  1   741.24071 36.5   758.26963    5  4  1   702.93575 21.7   758.27062
  4  4  1   708.04071 77.1   756.35389    5  4  1   701.01804 79.0   756.35291
  4  4  1   708.08782 87.9   756.40100    5  4  1   701.06667 87.8   756.40154
  4  4  1   708.09312 68.1   756.40630    5  4  1   701.07137 88.6   756.40624
  4  4  1   708.10272 84.4   756.41590    5  4  1   701.08102 80.2   756.41589
  4  4  1   708.25201 80.3   756.56519    5  4  1   701.22964 87.6   756.56451
  4  4  1   708.26358 81.1   756.57676    5  4  1   701.24228 70.8   756.57715
  4  4  1   708.27370 84.8   756.58688    5  4  1   701.25249 76.9   756.58736
  4  4  1   708.28838 47.2   756.60156    5  4  1   701.26585 89.7   756.60072
  4  4  1   708.36506 79.2   756.67824    5  4  1   701.34320 66.1   756.67807
  4  4  1   708.38784 89.3   756.70102    5  4  1   701.36549 77.8   756.70036
  4  4  1   708.67392 86.5   756.98710    5  4  1   701.65204 70.2   756.98691
  4  4  1   708.67801 68.7   756.99119    5  4  1   701.65698 86.9   756.99185
  4  4  1   708.76578 18.2   757.07896    5  4  1   701.74312 86.7   757.07799
  4  4  1   708.96652 85.3   757.27970    5  4  1   701.94386 60.5   757.27873
  4  4  1   708.97051 75.1   757.28369    5  4  1   701.94910 65.7   757.28397
  4  4  1   708.99928 71.9   757.31246    5  4  1   701.97719 76.1   757.31206
  4  4  1   709.10513 87.2   757.41831    5  4  1   702.08300 36.5   757.41787
  4  4  1   709.11895 71.8   757.43213    5  4  1   702.09802 24.4   757.43289
  4  4  1   709.24479 75.2   757.55797    5  4  1   702.22256 13.7   757.55743
  4  4  1   709.27263 88.9   757.58581    5  4  1   702.25188 85.6   757.58675
  4  4  1   709.29096 85.0   757.60414    5  4  1   702.26911 73.6   757.60398
  4  4  1   709.35635 28.0   757.66953    5  4  1   702.33562 67.5   757.67049
  4  4  1   709.38104 88.0   757.69422    5  4  1   702.35935 10.4   757.69422
  4  4  1   709.38621 73.3   757.69939    5  4  1   702.36540 65.7   757.70027
  4  4  1   709.39951 88.1   757.71269    5  4  1   702.37840 87.9   757.71327
  4  4  1   709.40430 81.4   757.71748    5  4  1   702.38357 80.3   757.71844
  4  4  1   709.41898 79.4   757.73216    5  4  1   702.39730 87.0   757.73217
  4  4  1   709.49066 51.4   757.80384    5  4  1   702.46816 67.9   757.80303
  4  4  1   709.52430 75.5   757.83748    5  4  1   702.50306 58.8   757.83793
  4  4  1   709.91553 81.5   758.22871    5  4  1   702.89338 78.2   758.22825
  4  4  1   709.95785 85.6   758.27103    5  4  1   702.93575 21.7   758.27062

 Searching   5  3  2 near    764.36522
 No   1:   4  2  2       22.72108  reg   740.644 -   742.644
 No   2:   5  4  2       55.33476  reg   708.030 -   710.030
 No   3:   6  4  2       63.76837  reg   699.597 -   701.597
  4  2  2   740.70128 82.0   763.42236    5  4  2   708.08782 87.9   763.42258
  4  2  2   740.71281 45.9   763.43389    5  4  2   708.09823 57.8   763.43299
  4  2  2   740.77660 87.6   763.49768    5  4  2   708.16270 76.2   763.49746
                                          6  4  2   699.73013 72.1   763.49850
  4  2  2   740.79446 77.8   763.51554    6  4  2   699.74727 84.1   763.51564
  4  2  2   740.80359 42.7   763.52467    5  4  2   708.18945 89.8   763.52421
  4  2  2   740.82422 32.6   763.54530    5  4  2   708.21051 82.5   763.54527
                                          6  4  2   699.77653 73.9   763.54490
  4  2  2   740.85990 54.0   763.58098    5  4  2   708.24638 48.6   763.58114
  4  2  2   740.86521 85.7   763.58629    5  4  2   708.25201 80.3   763.58677
  4  2  2   740.87797 17.3   763.59905    5  4  2   708.26358 81.1   763.59834
  4  2  2   740.89136 46.2   763.61244    5  4  2   708.27850 25.8   763.61326
                                          6  4  2   699.84440 64.4   763.61277
  4  2  2   740.91214 40.5   763.63322    5  4  2   708.29909 69.6   763.63385
  4  2  2   740.91934 29.8   763.64042    6  4  2   699.87125 69.9   763.63962
  4  2  2   740.96581 70.8   763.68689    5  4  2   708.35271 79.2   763.68747
  4  2  2   740.97464 61.6   763.69572    6  4  2   699.92666 84.8   763.69503
  4  2  2   740.98420 78.3   763.70528    5  4  2   708.36987 87.8   763.70463
  4  2  2   741.01374 82.3   763.73482    6  4  2   699.96614 76.7   763.73451
  4  2  2   741.06363 89.7   763.78471    5  4  2   708.45001 79.8   763.78477
  4  2  2   741.06882 86.1   763.78990    6  4  2   700.02215 82.7   763.79052
  4  2  2   741.08951 89.9   763.81059    5  4  2   708.47679 49.9   763.81155
  4  2  2   741.10270 87.1   763.82378    6  4  2   700.05534 70.9   763.82371
  4  2  2   741.11329 87.5   763.83437    6  4  2   700.06530 78.1   763.83367
  4  2  2   741.15544 74.1   763.87652    6  4  2   700.10768 39.3   763.87605
  4  2  2   741.16791 73.9   763.88899    5  4  2   708.55509 84.0   763.88985
  4  2  2   741.24071 36.5   763.96179    6  4  2   700.19288 81.5   763.96125
  4  2  2   741.28391 62.9   764.00499    5  4  2   708.66951 87.9   764.00427
  4  2  2   741.37238 78.7   764.09346    5  4  2   708.75899 76.5   764.09375
  4  2  2   741.40037 42.6   764.12145    6  4  2   700.35382 78.0   764.12219
  4  2  2   741.42452 81.2   764.14560    5  4  2   708.81115 75.2   764.14591
                                          6  4  2   700.37662 82.9   764.14499
  4  2  2   741.46563 88.0   764.18671    6  4  2   700.41901 32.5   764.18738
  4  2  2   741.48483 76.6   764.20591    5  4  2   708.87166 86.2   764.20642
  4  2  2   741.51564 86.2   764.23672    6  4  2   700.46757 11.8   764.23594
  4  2  2   741.54519 37.2   764.26627    6  4  2   700.49873 89.2   764.26710
  4  2  2   741.56503 11.8   764.28611    6  4  2   700.51815 19.7   764.28652
  4  2  2   741.62415 50.9   764.34523    5  4  2   709.01017 55.8   764.34493
  4  2  2   741.64133 88.0   764.36241    6  4  2   700.59488 63.6   764.36325
  4  2  2   741.65838 83.2   764.37946    6  4  2   700.61014 27.8   764.37851
  4  2  2   741.69826 82.0   764.41934    5  4  2   709.08431 89.1   764.41907
  4  2  2   741.73735 29.2   764.45843    6  4  2   700.69097 78.9   764.45934
  4  2  2   741.74752 76.0   764.46860    6  4  2   700.70071 81.5   764.46908
  4  2  2   741.77053 78.0   764.49161    5  4  2   709.15645 84.1   764.49121
  4  2  2   741.79068 85.0   764.51176    5  4  2   709.17673 86.7   764.51149
                                          6  4  2   700.74386 45.3   764.51223
  4  2  2   741.80123 57.8   764.52231    6  4  2   700.75418 44.8   764.52255
  4  2  2   741.84809 81.0   764.56917    5  4  2   709.23539 76.5   764.57015
  4  2  2   741.85368 80.0   764.57476    5  4  2   709.24013 84.4   764.57489
  4  2  2   741.86284 72.3   764.58392    5  4  2   709.24901 57.1   764.58377
  4  2  2   741.87789 18.5   764.59897    5  4  2   709.26511 78.5   764.59987
  4  2  2   741.88701 77.7   764.60809    5  4  2   709.27263 88.9   764.60739
  4  2  2   741.89580 45.3   764.61688    5  4  2   709.28258 72.7   764.61734
  4  2  2   741.94203 20.8   764.66311    5  4  2   709.32914 86.7   764.66390
  4  2  2   741.96166 77.3   764.68274    6  4  2   700.91486 25.8   764.68323
  4  2  2   741.98599 79.9   764.70707    6  4  2   700.93847 59.0   764.70684
  4  2  2   742.01731 85.2   764.73839    5  4  2   709.40430 81.4   764.73906
  4  2  2   742.11061 46.5   764.83169    5  4  2   709.49596 88.8   764.83072
  4  2  2   742.16604 79.7   764.88712    5  4  2   709.55219 78.2   764.88695
  4  2  2   742.18011 40.8   764.90119    6  4  2   701.13316 69.0   764.90153
  4  2  2   742.21679 47.9   764.93787    5  4  2   709.60389 72.5   764.93865
                                          6  4  2   701.17007 42.4   764.93844
  4  2  2   742.22190 53.6   764.94298    5  4  2   709.60899 58.8   764.94375
  4  2  2   742.25363 77.1   764.97471    6  4  2   701.20582 89.3   764.97419
  4  2  2   742.26587 72.0   764.98695    5  4  2   709.65218 74.3   764.98694
  4  2  2   742.28107 39.3   765.00215    5  4  2   709.66715 24.6   765.00191
  4  2  2   742.29193 87.1   765.01301    5  4  2   709.67758 88.8   765.01234
  4  2  2   742.30167 89.2   765.02275    5  4  2   709.68783 85.4   765.02259
  4  2  2   742.32782 84.5   765.04890    5  4  2   709.71434 86.1   765.04910
                                          6  4  2   701.28060 56.4   765.04897
  4  2  2   742.36547 18.3   765.08655    6  4  2   701.31829 68.9   765.08666
  4  2  2   742.48161 84.5   765.20269    5  4  2   709.86880 17.8   765.20356
  4  2  2   742.50027 50.5   765.22135    6  4  2   701.45251 43.0   765.22088
  4  2  2   742.50560 30.7   765.22668    6  4  2   701.45812 88.8   765.22649
  4  2  2   742.51849 47.0   765.23957    6  4  2   701.47213 50.4   765.24050
  4  2  2   742.54437 50.8   765.26545    5  4  2   709.93142 83.0   765.26618
  4  2  2   742.57957 84.1   765.30065    6  4  2   701.53151 86.1   765.29988
  4  2  2   742.58503 74.3   765.30611    5  4  2   709.97203 70.0   765.30679
  4  2  2   742.60928 57.1   765.33036    5  4  2   709.99561 74.9   765.33037
  4  2  2   742.61547 53.4   765.33655    5  4  2   710.00114 35.6   765.33590
  4  2  2   742.65033 75.9   765.37141    5  4  2   710.03567 75.0   765.37043
  5  4  2   708.14587 45.2   763.48063    6  4  2   699.71147 14.4   763.47984
  5  4  2   708.15757 89.0   763.49233    6  4  2   699.72493 82.5   763.49330
  5  4  2   708.16830 83.5   763.50306    6  4  2   699.73558 55.3   763.50395
  5  4  2   708.20559 89.1   763.54035    6  4  2   699.77110 87.9   763.53947
  5  4  2   708.21051 82.5   763.54527    6  4  2   699.77653 73.9   763.54490
  5  4  2   708.23019 87.3   763.56495    6  4  2   699.79635 67.9   763.56472
  5  4  2   708.23560 73.6   763.57036    6  4  2   699.80180 55.9   763.57017
  5  4  2   708.27850 25.8   763.61326    6  4  2   699.84440 64.4   763.61277
  5  4  2   708.29909 69.6   763.63385    6  4  2   699.86599 81.0   763.63437
  5  4  2   708.30403 86.1   763.63878    6  4  2   699.87125 69.9   763.63962
  5  4  2   708.33359 75.7   763.66835    6  4  2   699.89989 75.5   763.66826
  5  4  2   708.37569 82.5   763.71045    6  4  2   699.94134 82.8   763.70971
  5  4  2   708.40385 72.0   763.73861    6  4  2   699.97065 73.9   763.73902
  5  4  2   708.42535 85.1   763.76011    6  4  2   699.99185 77.6   763.76022
  5  4  2   708.53392 39.7   763.86868    6  4  2   700.10005 23.2   763.86842
  5  4  2   708.56489 85.4   763.89965    6  4  2   700.13143 86.0   763.89980
  5  4  2   708.68798 85.9   764.02274    6  4  2   700.25447 78.3   764.02284
  5  4  2   708.70839 87.9   764.04315    6  4  2   700.27443 82.8   764.04280
  5  4  2   708.74132 79.4   764.07608    6  4  2   700.30822 47.8   764.07659
  5  4  2   708.76578 18.2   764.10054    6  4  2   700.33251 85.1   764.10088
  5  4  2   708.81115 75.2   764.14591    6  4  2   700.37662 82.9   764.14499
  5  4  2   708.98614 89.3   764.32090    6  4  2   700.55301 71.0   764.32138
  5  4  2   709.05722 43.4   764.39198    6  4  2   700.62273 76.5   764.39110
  5  4  2   709.09607 87.3   764.43083    6  4  2   700.66313 17.6   764.43150
  5  4  2   709.10513 87.2   764.43989    6  4  2   700.67251 85.8   764.44088
  5  4  2   709.12499 75.1   764.45975    6  4  2   700.69097 78.9   764.45934
  5  4  2   709.16783 83.6   764.50259    6  4  2   700.73445 62.0   764.50282
  5  4  2   709.17673 86.7   764.51149    6  4  2   700.74386 45.3   764.51223
  5  4  2   709.22042 83.1   764.55518    6  4  2   700.78687 51.8   764.55524
  5  4  2   709.22510 82.0   764.55986    6  4  2   700.79247 33.2   764.56084
  5  4  2   709.49996 87.5   764.83472    6  4  2   701.06667 87.8   764.83504
  5  4  2   709.50465 78.2   764.83941    6  4  2   701.07137 88.6   764.83974
  5  4  2   709.51901 71.0   764.85377    6  4  2   701.08467 83.0   764.85304
  5  4  2   709.60389 72.5   764.93865    6  4  2   701.17007 42.4   764.93844
  5  4  2   709.66269 47.1   764.99745    6  4  2   701.22964 87.6   764.99801
  5  4  2   709.71434 86.1   765.04910    6  4  2   701.28060 56.4   765.04897
  5  4  2   709.81257 48.8   765.14733    6  4  2   701.37880 84.2   765.14717

 Searching   6  3  3 near    772.83140
 No   1:   5  2  3       29.89272  reg   741.939 -   743.939
 No   2:   6  4  3       63.76783  reg   708.064 -   710.064
 No   3:   7  4  3       73.61808  reg   698.213 -   700.213
  5  2  3   741.94203 20.8   771.83475    7  4  3   698.21744 85.5   771.83552
  5  2  3   741.94817 62.1   771.84089    7  4  3   698.22376 84.9   771.84184
  5  2  3   741.95288 61.7   771.84560    6  4  3   708.07701 19.5   771.84484
  5  2  3   742.11061 46.5   772.00333    6  4  3   708.23560 73.6   772.00343
                                          7  4  3   698.38513 88.8   772.00321
  5  2  3   742.12099 86.2   772.01371    6  4  3   708.24638 48.6   772.01421
  5  2  3   742.12650 28.6   772.01922    6  4  3   708.25201 80.3   772.01984
  5  2  3   742.14193 89.7   772.03465    7  4  3   698.41747 86.7   772.03555
  5  2  3   742.18011 40.8   772.07283    6  4  3   708.30403 86.1   772.07186
                                          7  4  3   698.45377 66.6   772.07185
  5  2  3   742.22190 53.6   772.11462    7  4  3   698.49740 52.2   772.11548
  5  2  3   742.24267 84.1   772.13539    7  4  3   698.51800 85.7   772.13608
  5  2  3   742.25363 77.1   772.14635    7  4  3   698.52788 87.2   772.14596
  5  2  3   742.28107 39.3   772.17379    7  4  3   698.55599 85.0   772.17407
  5  2  3   742.30708 87.7   772.19980    6  4  3   708.43130 80.1   772.19913
  5  2  3   742.31584 85.7   772.20856    6  4  3   708.44106 75.5   772.20889
  5  2  3   742.33099 83.4   772.22371    7  4  3   698.60563 78.8   772.22371
  5  2  3   742.33633 88.0   772.22905    6  4  3   708.46193 63.2   772.22976
                                          7  4  3   698.61097 35.9   772.22905
  5  2  3   742.36547 18.3   772.25819    6  4  3   708.49106 89.0   772.25889
  5  2  3   742.41084 89.3   772.30356    7  4  3   698.68463 89.7   772.30271
  5  2  3   742.51849 47.0   772.41121    7  4  3   698.79354 25.9   772.41162
  5  2  3   742.54437 50.8   772.43709    6  4  3   708.66951 87.9   772.43734
  5  2  3   742.60928 57.1   772.50200    6  4  3   708.73421 51.0   772.50204
  5  2  3   742.61547 53.4   772.50819    6  4  3   708.74132 79.4   772.50915
                                          7  4  3   698.88940 88.3   772.50748
  5  2  3   742.67154 64.5   772.56426    6  4  3   708.79589 44.0   772.56372
  5  2  3   742.70908 86.8   772.60180    6  4  3   708.83355 87.6   772.60138
  5  2  3   742.72562 78.0   772.61834    7  4  3   699.00052 89.0   772.61860
  5  2  3   742.80898 88.1   772.70170    6  4  3   708.93460 63.5   772.70243
  5  2  3   742.81379 84.8   772.70651    7  4  3   699.08935 78.5   772.70743
  5  2  3   742.82888 44.5   772.72160    7  4  3   699.10422 76.0   772.72230
  5  2  3   742.84193 62.8   772.73465    6  4  3   708.96652 85.3   772.73435
                                          7  4  3   699.11647 74.0   772.73455
  5  2  3   742.87188 37.8   772.76460    7  4  3   699.14660 10.1   772.76468
  5  2  3   742.94417 48.2   772.83689    7  4  3   699.21961 84.4   772.83769
  5  2  3   742.97150 51.0   772.86422    6  4  3   709.09607 87.3   772.86390
                                          7  4  3   699.24581 45.9   772.86389
  5  2  3   742.97738 43.2   772.87010    6  4  3   709.10155 84.8   772.86938
                                          7  4  3   699.25214 78.9   772.87022
  5  2  3   743.01470 27.4   772.90742    6  4  3   709.14022 73.9   772.90805
  5  2  3   743.02014 84.3   772.91286    7  4  3   699.29535 82.8   772.91343
  5  2  3   743.04329 89.3   772.93601    6  4  3   709.16783 83.6   772.93566
  5  2  3   743.05354 50.2   772.94626    7  4  3   699.32855 68.3   772.94663
  5  2  3   743.06788 48.7   772.96060    6  4  3   709.19194 89.1   772.95977
                                          7  4  3   699.34162 89.5   772.95970
  5  2  3   743.13929 55.3   773.03201    6  4  3   709.26511 78.5   773.03294
  5  2  3   743.17787 81.6   773.07059    6  4  3   709.30201 78.7   773.06984
                                          7  4  3   699.45258 81.7   773.07066
  5  2  3   743.19404 88.8   773.08676    7  4  3   699.46968 35.9   773.08776
  5  2  3   743.20464 72.5   773.09736    6  4  3   709.32914 86.7   773.09697
  5  2  3   743.23558 85.0   773.12830    7  4  3   699.51112 88.6   773.12920
  5  2  3   743.28354 41.5   773.17626    7  4  3   699.55802 84.9   773.17610
  5  2  3   743.37817 29.9   773.27089    7  4  3   699.65280 74.5   773.27088
  5  2  3   743.45267 45.1   773.34539    6  4  3   709.57776 86.2   773.34559
  5  2  3   743.50210 64.0   773.39482    7  4  3   699.77653 73.9   773.39461
  5  2  3   743.50588 49.1   773.39860    6  4  3   709.63131 69.1   773.39914
  5  2  3   743.58474 64.7   773.47746    6  4  3   709.70879 67.5   773.47662
                                          7  4  3   699.85954 54.5   773.47762
  5  2  3   743.59589 85.9   773.48861    6  4  3   709.72037 64.9   773.48820
                                          7  4  3   699.87125 69.9   773.48933
  5  2  3   743.61748 48.9   773.51020    7  4  3   699.89143 89.8   773.50951
  5  2  3   743.68775 80.2   773.58047    6  4  3   709.81257 48.8   773.58040
  5  2  3   743.70686 87.5   773.59958    7  4  3   699.98110 18.6   773.59918
  5  2  3   743.71643 77.5   773.60915    7  4  3   699.99185 77.6   773.60993
  5  2  3   743.73734 85.7   773.63006    6  4  3   709.86304 64.7   773.63087
  5  2  3   743.77022 89.1   773.66294    7  4  3   700.04573 63.5   773.66381
  5  2  3   743.78409 16.1   773.67681    7  4  3   700.05962 77.6   773.67770
  5  2  3   743.78978 86.3   773.68250    6  4  3   709.91553 81.5   773.68336
                                          7  4  3   700.06530 78.1   773.68338
  5  2  3   743.87057 68.4   773.76329    6  4  3   709.99561 74.9   773.76344
                                          7  4  3   700.14567 73.1   773.76375
  5  2  3   743.87845 77.5   773.77117    7  4  3   700.15243 68.0   773.77051
  5  2  3   743.88768 82.8   773.78040    6  4  3   710.01184 83.0   773.77967
  5  2  3   743.91601 82.7   773.80873    6  4  3   710.04049 52.2   773.80832
  5  2  3   743.92953 72.3   773.82225    6  4  3   710.05462 63.8   773.82245
  6  4  3   708.08782 87.9   771.85565    7  4  3   698.23824 84.3   771.85632
  6  4  3   708.09312 68.1   771.86095    7  4  3   698.24316 87.5   771.86124
  6  4  3   708.09823 57.8   771.86606    7  4  3   698.24797 89.2   771.86605
  6  4  3   708.12670 84.6   771.89453    7  4  3   698.27733 49.2   771.89540
  6  4  3   708.21051 82.5   771.97834    7  4  3   698.35955 75.2   771.97763
  6  4  3   708.21628 79.7   771.98411    7  4  3   698.36557 21.4   771.98365
  6  4  3   708.23560 73.6   772.00343    7  4  3   698.38513 88.8   772.00321
  6  4  3   708.24094 74.7   772.00877    7  4  3   698.39133 41.8   772.00941
  6  4  3   708.25780 32.7   772.02563    7  4  3   698.40783 86.3   772.02591
  6  4  3   708.27370 84.8   772.04153    7  4  3   698.42309 36.5   772.04117
  6  4  3   708.30403 86.1   772.07186    7  4  3   698.45377 66.6   772.07185
  6  4  3   708.32308 73.0   772.09091    7  4  3   698.47284 88.0   772.09092
  6  4  3   708.45001 79.8   772.21784    7  4  3   698.59979 68.6   772.21787
  6  4  3   708.46193 63.2   772.22976    7  4  3   698.61097 35.9   772.22905
  6  4  3   708.47679 49.9   772.24462    7  4  3   698.62714 23.2   772.24522
  6  4  3   708.48175 87.1   772.24958    7  4  3   698.63188 15.9   772.24996
  6  4  3   708.49620 83.5   772.26403    7  4  3   698.64631 79.0   772.26439
  6  4  3   708.52414 29.1   772.29197    7  4  3   698.67355 45.0   772.29163
  6  4  3   708.53392 39.7   772.30175    7  4  3   698.68463 89.7   772.30271
  6  4  3   708.54506 68.6   772.31289    7  4  3   698.69422 77.1   772.31230
  6  4  3   708.63826 88.3   772.40609    7  4  3   698.78834 89.0   772.40642
  6  4  3   708.65905 36.2   772.42688    7  4  3   698.80846 87.8   772.42654
  6  4  3   708.67801 68.7   772.44584    7  4  3   698.82800 83.0   772.44608
  6  4  3   708.70839 87.9   772.47622    7  4  3   698.85763 87.4   772.47571
  6  4  3   708.75899 76.5   772.52682    7  4  3   698.90837 80.7   772.52645
  6  4  3   708.80608 83.9   772.57391    7  4  3   698.95521 28.4   772.57329
  6  4  3   708.94448 75.5   772.71231    7  4  3   699.09513 70.5   772.71321
  6  4  3   708.96652 85.3   772.73435    7  4  3   699.11647 74.0   772.73455
  6  4  3   708.98614 89.3   772.75397    7  4  3   699.13623 89.4   772.75431
  6  4  3   709.06571 59.5   772.83354    7  4  3   699.21540 77.1   772.83348
  6  4  3   709.08431 89.1   772.85214    7  4  3   699.23462 46.0   772.85270
  6  4  3   709.09607 87.3   772.86390    7  4  3   699.24581 45.9   772.86389
  6  4  3   709.10155 84.8   772.86938    7  4  3   699.25214 78.9   772.87022
  6  4  3   709.12499 75.1   772.89282    7  4  3   699.27457 89.9   772.89265
  6  4  3   709.15155 84.5   772.91938    7  4  3   699.30150 81.6   772.91958
  6  4  3   709.19194 89.1   772.95977    7  4  3   699.34162 89.5   772.95970
  6  4  3   709.19631 86.1   772.96414    7  4  3   699.34560 88.8   772.96368
  6  4  3   709.20615 61.8   772.97398    7  4  3   699.35681 30.5   772.97489
  6  4  3   709.26511 78.5   773.03294    7  4  3   699.41530 89.7   773.03338
  6  4  3   709.30201 78.7   773.06984    7  4  3   699.45258 81.7   773.07066
  6  4  3   709.34220 15.6   773.11003    7  4  3   699.49130 57.8   773.10938
  6  4  3   709.36187 74.3   773.12970    7  4  3   699.51112 88.6   773.12920
  6  4  3   709.38104 88.0   773.14887    7  4  3   699.52993 87.4   773.14801
  6  4  3   709.52430 75.5   773.29213    7  4  3   699.67433 75.7   773.29241
  6  4  3   709.53403 64.8   773.30186    7  4  3   699.68431 88.3   773.30239
  6  4  3   709.55219 78.2   773.32002    7  4  3   699.70134 81.8   773.31942
  6  4  3   709.59718 35.2   773.36501    7  4  3   699.74727 84.1   773.36535
  6  4  3   709.60389 72.5   773.37172    7  4  3   699.75366 73.2   773.37174
  6  4  3   709.63131 69.1   773.39914    7  4  3   699.78160 30.9   773.39968
  6  4  3   709.64152 60.5   773.40935    7  4  3   699.79032 13.4   773.40840
  6  4  3   709.65218 74.3   773.42001    7  4  3   699.80180 55.9   773.41988
  6  4  3   709.66715 24.6   773.43498    7  4  3   699.81639 75.8   773.43447
  6  4  3   709.67758 88.8   773.44541    7  4  3   699.82735 12.8   773.44543
  6  4  3   709.68783 85.4   773.45566    7  4  3   699.83811 83.1   773.45619
  6  4  3   709.72670 54.5   773.49453    7  4  3   699.87692 86.0   773.49500
  6  4  3   709.75014 76.2   773.51797    7  4  3   699.89989 75.5   773.51797
  6  4  3   709.86304 64.7   773.63087    7  4  3   700.01330 87.3   773.63138
  6  4  3   709.91553 81.5   773.68336    7  4  3   700.06530 78.1   773.68338
  6  4  3   709.95785 85.6   773.72568    7  4  3   700.10768 39.3   773.72576
  6  4  3   709.96749 79.2   773.73532    7  4  3   700.11764 77.2   773.73572
  6  4  3   709.99561 74.9   773.76344    7  4  3   700.14567 73.1   773.76375

 Searching   7  3  4 near    782.73950
 No   1:   6  2  4       38.57011  reg   743.169 -   745.169
 No   2:   7  4  4       73.61611  reg   708.123 -   710.123
 No   3:   8  4  4       84.88948  reg   696.850 -   698.850
  6  2  4   743.15884 77.9   781.72895    7  4  4   708.11230 83.3   781.72841
  6  2  4   743.18919 85.1   781.75930    8  4  4   696.87062 71.1   781.76010
  6  2  4   743.20963 38.5   781.77974    7  4  4   708.16270 76.2   781.77881
  6  2  4   743.21513 87.0   781.78524    7  4  4   708.16830 83.5   781.78441
  6  2  4   743.22033 88.5   781.79044    8  4  4   696.90195 87.3   781.79143
  6  2  4   743.23558 85.0   781.80569    7  4  4   708.18945 89.8   781.80556
  6  2  4   743.24094 81.4   781.81105    8  4  4   696.92185 77.8   781.81133
  6  2  4   743.25208 81.2   781.82219    7  4  4   708.20559 89.1   781.82170
  6  2  4   743.30140 74.4   781.87151    8  4  4   696.98147 78.3   781.87095
  6  2  4   743.30831 36.4   781.87842    8  4  4   696.98902 51.9   781.87850
  6  2  4   743.35035 74.9   781.92046    7  4  4   708.30403 86.1   781.92014
  6  2  4   743.38400 80.1   781.95411    8  4  4   697.06446 22.0   781.95394
  6  2  4   743.39825 74.8   781.96836    7  4  4   708.35271 79.2   781.96882
                                          8  4  4   697.07913 61.8   781.96861
  6  2  4   743.42257 43.3   781.99268    7  4  4   708.37569 82.5   781.99180
  6  2  4   743.43817 23.7   782.00828    7  4  4   708.39282 77.7   782.00893
  6  2  4   743.48727 85.1   782.05738    7  4  4   708.44106 75.5   782.05717
  6  2  4   743.50210 64.0   782.07221    8  4  4   697.18178 76.4   782.07126
  6  2  4   743.55956 78.6   782.12967    7  4  4   708.51432 78.1   782.13043
                                          8  4  4   697.24082 45.3   782.13030
  6  2  4   743.58474 64.7   782.15485    7  4  4   708.53964 86.0   782.15575
                                          8  4  4   697.26473 65.4   782.15421
  6  2  4   743.61188 69.4   782.18199    7  4  4   708.56489 85.4   782.18100
  6  2  4   743.64128 82.6   782.21139    8  4  4   697.32168 65.7   782.21116
  6  2  4   743.67261 15.5   782.24272    8  4  4   697.35413 73.0   782.24361
  6  2  4   743.68344 86.4   782.25355    7  4  4   708.63826 88.3   782.25437
  6  2  4   743.69760 66.5   782.26771    7  4  4   708.65253 68.2   782.26864
  6  2  4   743.71140 89.4   782.28151    8  4  4   697.39145 50.3   782.28093
  6  2  4   743.71643 77.5   782.28654    7  4  4   708.66951 87.9   782.28562
  6  2  4   743.72122 76.4   782.29133    8  4  4   697.40171 77.7   782.29119
  6  2  4   743.77022 89.1   782.34033    8  4  4   697.45001 87.4   782.33949
  6  2  4   743.78978 86.3   782.35989    8  4  4   697.47076 52.2   782.36024
  6  2  4   743.81828 85.3   782.38839    7  4  4   708.77209 89.9   782.38820
  6  2  4   743.84121 82.1   782.41132    7  4  4   708.79589 44.0   782.41200
  6  2  4   743.85458 70.5   782.42469    8  4  4   697.53597 60.9   782.42545
  6  2  4   743.99990 62.4   782.57001    8  4  4   697.68085 88.0   782.57033
  6  2  4   744.07038 77.1   782.64049    8  4  4   697.75005 69.5   782.63953
  6  2  4   744.07739 54.6   782.64750    7  4  4   709.03225 44.0   782.64836
  6  2  4   744.13816 73.3   782.70827    8  4  4   697.81975 80.5   782.70923
  6  2  4   744.15261 89.6   782.72272    8  4  4   697.83372 87.7   782.72320
  6  2  4   744.16234 52.7   782.73245    8  4  4   697.84384 45.1   782.73332
  6  2  4   744.17281 58.7   782.74292    8  4  4   697.85399 75.7   782.74347
  6  2  4   744.18669 87.3   782.75680    7  4  4   709.14022 73.9   782.75633
  6  2  4   744.19195 56.3   782.76206    8  4  4   697.87304 85.5   782.76252
  6  2  4   744.19791 56.1   782.76802    7  4  4   709.15155 84.5   782.76766
  6  2  4   744.23803 78.2   782.80814    7  4  4   709.19194 89.1   782.80805
  6  2  4   744.25836 86.9   782.82847    8  4  4   697.93990 83.1   782.82938
  6  2  4   744.29504 58.8   782.86515    7  4  4   709.24901 57.1   782.86512
  6  2  4   744.37441 57.5   782.94452    7  4  4   709.32914 86.7   782.94525
                                          8  4  4   698.05570 85.7   782.94518
  6  2  4   744.54308 87.2   783.11319    8  4  4   698.22376 84.9   783.11324
  6  2  4   744.58969 23.4   783.15980    8  4  4   698.26937 72.3   783.15885
  6  2  4   744.60081 74.5   783.17092    8  4  4   698.28221 78.4   783.17169
  6  2  4   744.64049 84.8   783.21060    8  4  4   698.32145 57.5   783.21093
  6  2  4   744.67816 16.6   783.24827    7  4  4   709.63131 69.1   783.24742
                                          8  4  4   698.35955 75.2   783.24903
  6  2  4   744.70377 73.8   783.27388    7  4  4   709.65706 81.9   783.27317
                                          8  4  4   698.38513 88.8   783.27461
  6  2  4   744.76013 39.9   783.33024    7  4  4   709.71434 86.1   783.33045
  6  2  4   744.76609 65.8   783.33620    7  4  4   709.72037 64.9   783.33648
  6  2  4   744.78053 62.7   783.35064    7  4  4   709.73393 83.6   783.35004
                                          8  4  4   698.46208 72.1   783.35156
  6  2  4   744.79145 26.6   783.36156    8  4  4   698.47284 88.0   783.36232
  6  2  4   744.79601 82.1   783.36612    7  4  4   709.75014 76.2   783.36625
  6  2  4   744.85915 46.6   783.42926    7  4  4   709.81257 48.8   783.42868
  6  2  4   744.92439 49.2   783.49450    8  4  4   698.60563 78.8   783.49511
  6  2  4   744.93046 82.9   783.50057    7  4  4   709.88380 83.5   783.49991
                                          8  4  4   698.61097 35.9   783.50045
  6  2  4   744.93586 61.6   783.50597    8  4  4   698.61642 63.2   783.50590
  6  2  4   744.98067 51.7   783.55078    8  4  4   698.66142 31.3   783.55090
  6  2  4   744.98648 77.6   783.55659    8  4  4   698.66748 72.6   783.55696
  6  2  4   745.00396 88.5   783.57407    7  4  4   709.95785 85.6   783.57396
                                          8  4  4   698.68463 89.7   783.57411
  6  2  4   745.04102 83.3   783.61113    7  4  4   709.99561 74.9   783.61172
  6  2  4   745.10749 89.9   783.67760    8  4  4   698.78834 89.0   783.67782
  6  2  4   745.16265 76.4   783.73276    7  4  4   710.11646 59.8   783.73257
  7  4  4   708.12670 84.6   781.74281    8  4  4   696.85276 46.1   781.74224
  7  4  4   708.23019 87.3   781.84630    8  4  4   696.95622 84.6   781.84570
  7  4  4   708.35271 79.2   781.96882    8  4  4   697.07913 61.8   781.96861
  7  4  4   708.41041 89.0   782.02652    8  4  4   697.13775 85.4   782.02723
  7  4  4   708.47679 49.9   782.09290    8  4  4   697.20394 67.6   782.09342
  7  4  4   708.51432 78.1   782.13043    8  4  4   697.24082 45.3   782.13030
  7  4  4   708.52414 29.1   782.14025    8  4  4   697.25077 78.8   782.14025
  7  4  4   708.53392 39.7   782.15003    8  4  4   697.25984 54.1   782.14932
  7  4  4   708.65253 68.2   782.26864    8  4  4   697.37958 84.9   782.26906
  7  4  4   708.65905 36.2   782.27516    8  4  4   697.38540 16.4   782.27488
  7  4  4   708.99928 71.9   782.61539    8  4  4   697.72633 84.0   782.61581
  7  4  4   709.05159 88.3   782.66770    8  4  4   697.77900 20.6   782.66848
  7  4  4   709.20074 86.1   782.81685    8  4  4   697.92771 57.7   782.81719
  7  4  4   709.26511 78.5   782.88122    8  4  4   697.99268 68.8   782.88216
  7  4  4   709.29096 85.0   782.90707    8  4  4   698.01792 28.5   782.90740
  7  4  4   709.32316 65.5   782.93927    8  4  4   698.05053 83.4   782.94001
  7  4  4   709.32914 86.7   782.94525    8  4  4   698.05570 85.7   782.94518
  7  4  4   709.36187 74.3   782.97798    8  4  4   698.08815 22.3   782.97763
  7  4  4   709.49066 51.4   783.10677    8  4  4   698.21744 85.5   783.10692
  7  4  4   709.51590 73.4   783.13201    8  4  4   698.24316 87.5   783.13264
  7  4  4   709.69656 26.0   783.31267    8  4  4   698.42309 36.5   783.31257
  7  4  4   709.72670 54.5   783.34281    8  4  4   698.45377 66.6   783.34325
  7  4  4   709.80186 86.8   783.41797    8  4  4   698.52788 87.2   783.41736
  7  4  4   709.88380 83.5   783.49991    8  4  4   698.61097 35.9   783.50045
  7  4  4   709.94655 85.3   783.56266    8  4  4   698.67355 45.0   783.56303
  7  4  4   709.95785 85.6   783.57396    8  4  4   698.68463 89.7   783.57411
  7  4  4   709.96749 79.2   783.58360    8  4  4   698.69422 77.1   783.58370

 Searching   8  3  5 near    794.10844
 No   1:   7  2  5       48.77161  reg   744.337 -   746.337
 No   2:   8  4  5       84.88362  reg   708.225 -   710.225
 No   3:   9  4  5       97.58956  reg   695.519 -   697.519
  7  2  5   744.35772 87.4   793.12933    8  4  5   708.24638 48.6   793.13000
  7  2  5   744.36363 58.2   793.13524    8  4  5   708.25201 80.3   793.13563
  7  2  5   744.38286 73.3   793.15447    9  4  5   695.56523 28.1   793.15479
  7  2  5   744.53126 20.0   793.30287    9  4  5   695.71338 22.9   793.30294
  7  2  5   744.54308 87.2   793.31469    8  4  5   708.43130 80.1   793.31492
  7  2  5   744.55391 69.0   793.32552    8  4  5   708.44106 75.5   793.32468
  7  2  5   744.58969 23.4   793.36130    8  4  5   708.47679 49.9   793.36041
  7  2  5   744.60081 74.5   793.37242    9  4  5   695.78192 87.7   793.37148
  7  2  5   744.64548 69.9   793.41709    8  4  5   708.53392 39.7   793.41754
  7  2  5   744.70377 73.8   793.47538    9  4  5   695.88624 82.9   793.47580
  7  2  5   744.76013 39.9   793.53174    9  4  5   695.94313 83.4   793.53269
  7  2  5   744.77545 79.6   793.54706    8  4  5   708.66368 57.7   793.54730
  7  2  5   744.78053 62.7   793.55214    8  4  5   708.66951 87.9   793.55313
  7  2  5   744.78565 19.8   793.55726    8  4  5   708.67392 86.5   793.55754
  7  2  5   744.79601 82.1   793.56762    9  4  5   695.97823 82.6   793.56779
  7  2  5   744.81230 15.4   793.58391    9  4  5   695.99505 81.6   793.58461
  7  2  5   744.85915 46.6   793.63076    8  4  5   708.74634 89.7   793.62996
  7  2  5   744.87121 89.9   793.64282    8  4  5   708.75899 76.5   793.64261
  7  2  5   744.91633 85.4   793.68794    9  4  5   696.09820 84.1   793.68776
  7  2  5   744.93046 82.9   793.70207    9  4  5   696.11267 78.4   793.70223
  7  2  5   744.93586 61.6   793.70747    8  4  5   708.82327 89.4   793.70689
  7  2  5   744.98067 51.7   793.75228    9  4  5   696.16258 74.4   793.75214
  7  2  5   744.98648 77.6   793.75809    9  4  5   696.16853 72.5   793.75809
  7  2  5   744.99478 87.2   793.76639    9  4  5   696.17709 70.1   793.76665
  7  2  5   745.01992 75.1   793.79153    9  4  5   696.20164 79.0   793.79120
  7  2  5   745.07402 89.3   793.84563    8  4  5   708.96118 77.4   793.84480
  7  2  5   745.07949 71.8   793.85110    8  4  5   708.96652 85.3   793.85014
  7  2  5   745.12215 75.7   793.89376    8  4  5   709.01017 55.8   793.89379
  7  2  5   745.16265 76.4   793.93426    8  4  5   709.05159 88.3   793.93521
  7  2  5   745.21677 78.3   793.98838    8  4  5   709.10513 87.2   793.98875
  7  2  5   745.23085 82.5   794.00246    8  4  5   709.11895 71.8   794.00257
  7  2  5   745.23601 84.7   794.00762    8  4  5   709.12499 75.1   794.00861
  7  2  5   745.26554 14.9   794.03715    9  4  5   696.44677 50.4   794.03633
  7  2  5   745.27017 52.5   794.04178    9  4  5   696.45223 42.9   794.04179
  7  2  5   745.28051 89.7   794.05212    8  4  5   709.16783 83.6   794.05145
  7  2  5   745.33307 79.4   794.10468    8  4  5   709.22042 83.1   794.10404
  7  2  5   745.33911 69.0   794.11072    9  4  5   696.52026 64.1   794.10982
  7  2  5   745.37713 74.6   794.14874    8  4  5   709.26511 78.5   794.14873
  7  2  5   745.49677 33.3   794.26838    9  4  5   696.67934 89.9   794.26890
  7  2  5   745.50239 88.0   794.27400    9  4  5   696.68490 51.7   794.27446
  7  2  5   745.51145 72.1   794.28306    8  4  5   709.39951 88.1   794.28313
  7  2  5   745.54559 62.5   794.31720    9  4  5   696.72750 74.5   794.31706
  7  2  5   745.57852 32.2   794.35013    9  4  5   696.76054 83.4   794.35010
  7  2  5   745.61334 82.9   794.38495    9  4  5   696.79454 76.6   794.38410
  7  2  5   745.62219 78.5   794.39380    9  4  5   696.80362 48.7   794.39318
  7  2  5   745.63656 67.7   794.40817    8  4  5   709.52430 75.5   794.40792
  7  2  5   745.65473 79.1   794.42634    9  4  5   696.83661 70.9   794.42617
  7  2  5   745.66500 63.0   794.43661    8  4  5   709.55219 78.2   794.43581
  7  2  5   745.74279 43.9   794.51440    8  4  5   709.63131 69.1   794.51493
  7  2  5   745.75262 87.4   794.52423    8  4  5   709.64152 60.5   794.52514
  7  2  5   745.76157 88.3   794.53318    9  4  5   696.94400 52.1   794.53356
  7  2  5   745.77500 27.0   794.54661    8  4  5   709.66269 47.1   794.54631
                                          9  4  5   696.95622 84.6   794.54578
  7  2  5   745.80048 59.5   794.57209    8  4  5   709.68783 85.4   794.57145
  7  2  5   745.81510 87.3   794.58671    8  4  5   709.70327 89.3   794.58689
  7  2  5   745.82943 77.1   794.60104    9  4  5   697.01231 86.5   794.60187
  7  2  5   745.83458 67.5   794.60619    9  4  5   697.01655 49.4   794.60611
  7  2  5   745.84487 46.5   794.61648    9  4  5   697.02716 82.3   794.61672
  7  2  5   745.85048 77.6   794.62209    9  4  5   697.03247 54.4   794.62203
  7  2  5   745.92489 87.6   794.69650    8  4  5   709.81257 48.8   794.69619
  7  2  5   746.02315 59.5   794.79476    8  4  5   709.91199 84.1   794.79561
  7  2  5   746.05857 33.5   794.83018    8  4  5   709.94655 85.3   794.83017
                                          9  4  5   697.24082 45.3   794.83038
  7  2  5   746.09802 78.1   794.86963    8  4  5   709.98604 75.5   794.86966
                                          9  4  5   697.27987 66.0   794.86943
  7  2  5   746.10319 82.5   794.87480    9  4  5   697.28424 72.6   794.87380
  7  2  5   746.10857 62.2   794.88018    8  4  5   709.99561 74.9   794.87923
  7  2  5   746.11366 11.6   794.88527    8  4  5   710.00114 35.6   794.88476
  7  2  5   746.11911 79.1   794.89072    8  4  5   710.00656 78.1   794.89018
  7  2  5   746.15411 75.5   794.92572    9  4  5   697.33598 73.6   794.92554
  7  2  5   746.16568 84.7   794.93729    8  4  5   710.05462 63.8   794.93824
  7  2  5   746.17246 63.1   794.94407    8  4  5   710.05995 83.8   794.94357
                                          9  4  5   697.35413 73.0   794.94369
  7  2  5   746.20261 87.1   794.97422    9  4  5   697.38540 16.4   794.97496
  7  2  5   746.33744 79.6   795.10905    9  4  5   697.51877 33.2   795.10833
  8  4  5   708.35271 79.2   793.23633    9  4  5   695.64674 86.9   793.23630
  8  4  5   708.48175 87.1   793.36536    9  4  5   695.77556 87.1   793.36512
  8  4  5   708.67801 68.7   793.56163    9  4  5   695.97127 40.4   793.56083
  8  4  5   708.76578 18.2   793.64940    9  4  5   696.06008 71.3   793.64964
  8  4  5   708.78004 75.8   793.66366    9  4  5   696.07471 89.8   793.66427
  8  4  5   709.03225 44.0   793.91587    9  4  5   696.32567 10.8   793.91523
  8  4  5   709.06571 59.5   793.94933    9  4  5   696.35896 56.6   793.94852
  8  4  5   709.08431 89.1   793.96793    9  4  5   696.37869 44.2   793.96825
  8  4  5   709.19631 86.1   794.07993    9  4  5   696.49059 53.2   794.08015
  8  4  5   709.24479 75.2   794.12841    9  4  5   696.53902 71.4   794.12858
  8  4  5   709.24901 57.1   794.13263    9  4  5   696.54393 84.3   794.13349
  8  4  5   709.26050 88.3   794.14412    9  4  5   696.55393 89.2   794.14349
  8  4  5   709.27263 88.9   794.15625    9  4  5   696.56764 77.0   794.15720
  8  4  5   709.29659 60.0   794.18021    9  4  5   696.59135 76.0   794.18091
  8  4  5   709.30201 78.7   794.18563    9  4  5   696.59676 58.0   794.18632
  8  4  5   709.35635 28.0   794.23997    9  4  5   696.64993 62.7   794.23949
  8  4  5   709.38621 73.3   794.26983    9  4  5   696.67934 89.9   794.26890
  8  4  5   709.41898 79.4   794.30260    9  4  5   696.71254 50.7   794.30210
  8  4  5   709.43843 87.9   794.32205    9  4  5   696.73323 56.9   794.32279
  8  4  5   709.49996 87.5   794.38358    9  4  5   696.79454 76.6   794.38410
  8  4  5   709.51590 73.4   794.39952    9  4  5   696.80918 85.9   794.39874
  8  4  5   709.59718 35.2   794.48080    9  4  5   696.89130 63.7   794.48086
  8  4  5   709.60389 72.5   794.48751    9  4  5   696.89705 82.4   794.48661
  8  4  5   709.61686 84.9   794.50048    9  4  5   696.91132 65.5   794.50088
  8  4  5   709.63720 17.8   794.52082    9  4  5   696.93112 65.8   794.52068
  8  4  5   709.66269 47.1   794.54631    9  4  5   696.95622 84.6   794.54578
  8  4  5   709.68783 85.4   794.57145    9  4  5   696.98147 78.3   794.57103
  8  4  5   709.73393 83.6   794.61755    9  4  5   697.02716 82.3   794.61672
  8  4  5   709.94655 85.3   794.83017    9  4  5   697.24082 45.3   794.83038
  8  4  5   709.98604 75.5   794.86966    9  4  5   697.27987 66.0   794.86943
  8  4  5   710.00114 35.6   794.88476    9  4  5   697.29429 60.4   794.88385
  8  4  5   710.05995 83.8   794.94357    9  4  5   697.35413 73.0   794.94369
  8  4  5   710.09706 74.1   794.98068    9  4  5   697.39145 50.3   794.98101
  8  4  5   710.12944 81.2   795.01306    9  4  5   697.42383 81.1   795.01339
  8  4  5   710.14418 35.1   795.02780    9  4  5   697.43916 75.9   795.02872
  8  4  5   710.15638 54.0   795.04000    9  4  5   697.45001 87.4   795.03957
  8  4  5   710.17668 20.4   795.06030    9  4  5   697.47076 52.2   795.06032
  8  4  5   710.20509 67.2   795.08871    9  4  5   697.49993 87.1   795.08949
  8  4  5   710.21438 84.8   795.09800    9  4  5   697.50908 80.0   795.09864
