Range    : 1.000
Accuracy : 0.001
Control file  : C2HD3gr   
Spectrum file : w         

 Searching   3  3  1 near    791.70521
 No   1:   2  2  1       12.77805  reg   777.927 -   779.927
 No   2:   3  2  1       17.02892  reg   773.676 -   775.676
 No   3:   4  4  1       48.31318  reg   742.392 -   744.392
  2  2  1   777.91988 88.7   790.69793    3  2  1   773.66899 55.2   790.69791
  2  2  1   777.94017 85.7   790.71822    4  4  1   742.40523 54.6   790.71841
  2  2  1   778.04086 89.8   790.81891    4  4  1   742.50601 88.3   790.81919
  2  2  1   778.34467 68.1   791.12272    3  2  1   774.09422 85.1   791.12314
  2  2  1   779.91150 88.8   792.68955    3  2  1   775.66011 43.8   792.68903
  2  2  1   779.93140 83.7   792.70945    4  4  1   744.39645 29.4   792.70963
  3  2  1   773.73223 90.0   790.76115    4  4  1   742.44732 72.0   790.76050
  3  2  1   774.33904 86.2   791.36796    4  4  1   743.05571 90.0   791.36889
  3  2  1   774.75918 75.5   791.78810    4  4  1   743.47396 89.3   791.78714
  3  2  1   775.51608 89.7   792.54500    4  4  1   744.23151 88.5   792.54469

 Searching   4  3  2 near    797.32401
 No   1:   3  2  2       16.97774  reg   779.346 -   781.346
 No   2:   4  2  2       22.72108  reg   773.603 -   775.603
 No   3:   5  4  2       55.33476  reg   740.989 -   742.989
  3  2  2   779.77471 77.7   796.75245    5  4  2   741.41702 67.0   796.75178
  3  2  2   779.83685 73.5   796.81459    4  2  2   774.09422 85.1   796.81530

 Searching   5  3  3 near    804.35448
 No   1:   4  2  3       22.56924  reg   780.785 -   782.785
 No   2:   5  2  3       29.89272  reg   773.462 -   775.462
 No   3:   6  4  3       63.76783  reg   739.587 -   741.587
  4  2  3   780.79555 77.3   803.36479    6  4  3   739.59632 52.8   803.36415
  4  2  3   781.10466 73.6   803.67390    6  4  3   739.90521 65.0   803.67304
  4  2  3   781.43509 80.8   804.00433    6  4  3   740.23709 50.9   804.00492
  4  2  3   781.49142 78.6   804.06066    6  4  3   740.29323 83.0   804.06106
  4  2  3   781.86775 58.9   804.43699    5  2  3   774.54389 85.9   804.43661
  4  2  3   781.88847 81.9   804.45771    5  2  3   774.56513 45.7   804.45785
  4  2  3   782.59500 45.2   805.16424    5  2  3   775.27228 72.0   805.16500
  5  2  3   774.18023 55.0   804.07295    6  4  3   740.30482 88.3   804.07265
  5  2  3   774.38953 34.1   804.28225    6  4  3   740.51371 39.5   804.28154
  5  2  3   774.45741 86.6   804.35013    6  4  3   740.58250 40.7   804.35033

 Searching   6  3  4 near    812.79940
 No   1:   5  2  4       29.54562  reg   782.254 -   784.254
 No   2:   6  2  4       38.57011  reg   773.229 -   775.229
 No   3:   7  4  4       73.61611  reg   738.183 -   740.183
  5  2  4   782.42620 69.8   811.97182    7  4  4   738.35612 74.4   811.97223
  5  2  4   782.89241 88.1   812.43803    6  2  4   773.86726 41.5   812.43737
  5  2  4   783.33440 59.9   812.88002    7  4  4   739.26379 87.7   812.87990
  5  2  4   783.91549 89.9   813.46111    7  4  4   739.84446 79.0   813.46057
  5  2  4   783.92096 49.3   813.46658    7  4  4   739.85063 78.6   813.46674
  5  2  4   783.93040 48.3   813.47602    7  4  4   739.85960 46.0   813.47571
  6  2  4   773.67995 88.3   812.25006    7  4  4   738.63316 71.3   812.24927
  6  2  4   774.25832 86.2   812.82843    7  4  4   739.21147 77.7   812.82758
  6  2  4   774.95142 87.7   813.52153    7  4  4   739.90521 65.0   813.52132

 Searching   7  3  5 near    822.66042
 No   1:   6  2  5       37.89832  reg   783.762 -   785.762
 No   2:   7  2  5       48.77161  reg   772.889 -   774.889
 No   3:   8  4  5       84.88362  reg   736.777 -   738.777
  6  2  5   783.91549 89.9   821.81381    8  4  5   736.93079 80.8   821.81441

 Searching   8  3  6 near    833.93746
 No   1:   7  2  6       47.61722  reg   785.320 -   787.320
 No   2:   8  2  6       60.50331  reg   772.434 -   774.434
 No   3:   9  4  6       97.57445  reg   735.363 -   737.363
  7  2  6   786.43286 84.9   834.05008    9  4  6   736.47509 46.6   834.04954
  7  2  6   786.60739 90.0   834.22461    9  4  6   736.65016 87.9   834.22461
  8  2  6   772.62053 83.5   833.12384    9  4  6   735.54850 88.4   833.12295
