Range    : 1.000
Accuracy : 0.001
Control file  : C2HD3gr   
Spectrum file : s         

 Searching   4  4  1 near    772.31318
 No   1:   3  3  1       27.70521  reg   743.608 -   745.608
 No   2:   4  3  1       33.32670  reg   737.986 -   739.986
 No   3:   5  5  1       74.60328  reg   696.710 -   698.710
  3  3  1   743.70256 86.7   771.40777    5  5  1   696.80362 48.7   771.40690
  3  3  1   743.70686 87.5   771.41207    5  5  1   696.80918 85.9   771.41246
  3  3  1   743.71140 89.4   771.41661    4  3  1   738.08904 47.7   771.41574
  3  3  1   743.76510 85.7   771.47031    4  3  1   738.14306 88.2   771.46976
  3  3  1   743.78409 16.1   771.48930    4  3  1   738.16251 81.5   771.48921
  3  3  1   743.78978 86.3   771.49499    5  5  1   696.89130 63.7   771.49458
  3  3  1   743.84121 82.1   771.54642    5  5  1   696.94400 52.1   771.54728
  3  3  1   743.85458 70.5   771.55979    5  5  1   696.95622 84.6   771.55950
  3  3  1   743.88768 82.8   771.59289    5  5  1   696.98902 51.9   771.59230
  3  3  1   743.92110 50.1   771.62631    5  5  1   697.02245 77.5   771.62573
  3  3  1   743.92953 72.3   771.63474    4  3  1   738.30711 31.4   771.63381
  3  3  1   743.94043 82.8   771.64564    4  3  1   738.31832 31.1   771.64502
  3  3  1   743.96228 63.7   771.66749    4  3  1   738.34056 84.1   771.66726
                                          5  5  1   697.06446 22.0   771.66774
  3  3  1   744.07038 77.1   771.77559    4  3  1   738.44975 83.0   771.77645
  3  3  1   744.13816 73.3   771.84337    4  3  1   738.51675 51.5   771.84345
                                          5  5  1   697.24082 45.3   771.84410
  3  3  1   744.15261 89.6   771.85782    4  3  1   738.53176 73.3   771.85846
  3  3  1   744.16234 52.7   771.86755    5  5  1   697.26473 65.4   771.86801
  3  3  1   744.18210 84.6   771.88731    5  5  1   697.28424 72.6   771.88752
  3  3  1   744.19195 56.3   771.89716    5  5  1   697.29429 60.4   771.89757
  3  3  1   744.19791 56.1   771.90312    4  3  1   738.57697 77.5   771.90367
  3  3  1   744.22039 80.5   771.92560    4  3  1   738.59929 66.2   771.92599
                                          5  5  1   697.32168 65.7   771.92496
  3  3  1   744.23803 78.2   771.94324    4  3  1   738.61589 29.7   771.94259
  3  3  1   744.29504 58.8   772.00025    4  3  1   738.67402 80.0   772.00072
  3  3  1   744.32448 32.5   772.02969    4  3  1   738.70248 79.6   772.02918
  3  3  1   744.37441 57.5   772.07962    4  3  1   738.75207 70.3   772.07877
                                          5  5  1   697.47670 87.9   772.07998
  3  3  1   744.40526 73.3   772.11047    4  3  1   738.78464 81.6   772.11134
  3  3  1   744.49657 83.9   772.20178    4  3  1   738.87489 56.5   772.20159
  3  3  1   744.53126 20.0   772.23647    4  3  1   738.90997 43.5   772.23667
  3  3  1   744.58195 78.1   772.28716    5  5  1   697.68437 89.3   772.28765
  3  3  1   744.58969 23.4   772.29490    4  3  1   738.96735 55.3   772.29405
  3  3  1   744.60081 74.5   772.30602    5  5  1   697.70273 74.8   772.30601
  3  3  1   744.62977 71.6   772.33498    5  5  1   697.73087 86.7   772.33415
  3  3  1   744.63477 20.7   772.33998    4  3  1   739.01342 78.9   772.34012
  3  3  1   744.64548 69.9   772.35069    4  3  1   739.02377 40.7   772.35047
  3  3  1   744.74503 28.1   772.45024    4  3  1   739.12332 55.2   772.45002
  3  3  1   744.76013 39.9   772.46534    4  3  1   739.13907 44.7   772.46577
  3  3  1   744.77004 88.8   772.47525    4  3  1   739.14894 70.8   772.47564
  3  3  1   744.77545 79.6   772.48066    4  3  1   739.15410 89.8   772.48080
  3  3  1   744.78053 62.7   772.48574    4  3  1   739.15990 58.2   772.48660
                                          5  5  1   697.88157 84.6   772.48485
  3  3  1   744.79145 26.6   772.49666    4  3  1   739.16996 21.3   772.49666
  3  3  1   744.87121 89.9   772.57642    5  5  1   697.97359 12.8   772.57687
  3  3  1   744.88295 58.3   772.58816    5  5  1   697.98395 89.3   772.58723
  3  3  1   744.90113 55.0   772.60634    5  5  1   698.00236 69.2   772.60564
  3  3  1   744.91633 85.4   772.62154    5  5  1   698.01792 28.5   772.62120
  3  3  1   744.92439 49.2   772.62960    4  3  1   739.30208 51.1   772.62878
  3  3  1   744.97416 88.5   772.67937    4  3  1   739.35321 54.9   772.67991
  3  3  1   744.98067 51.7   772.68588    4  3  1   739.35829 84.0   772.68499
  3  3  1   744.98648 77.6   772.69169    5  5  1   698.08815 22.3   772.69143
  3  3  1   744.99478 87.2   772.69999    4  3  1   739.37285 53.6   772.69955
  3  3  1   745.00396 88.5   772.70917    4  3  1   739.38181 38.5   772.70851
  3  3  1   745.04102 83.3   772.74623    5  5  1   698.14310 87.2   772.74638
  3  3  1   745.07402 89.3   772.77923    5  5  1   698.17598 57.9   772.77926
  3  3  1   745.07949 71.8   772.78470    5  5  1   698.18147 68.6   772.78475
  3  3  1   745.10749 89.9   772.81270    4  3  1   739.48685 66.6   772.81355
  3  3  1   745.12215 75.7   772.82736    5  5  1   698.22376 84.9   772.82704
  3  3  1   745.15009 59.5   772.85530    4  3  1   739.52792 30.9   772.85462
  3  3  1   745.16265 76.4   772.86786    4  3  1   739.54185 84.9   772.86855
  3  3  1   745.18120 64.0   772.88641    5  5  1   698.28221 78.4   772.88549
  3  3  1   745.23085 82.5   772.93606    4  3  1   739.60966 62.6   772.93636
  3  3  1   745.23601 84.7   772.94122    4  3  1   739.61459 30.8   772.94129
  3  3  1   745.26554 14.9   772.97075    4  3  1   739.64378 78.5   772.97048
  3  3  1   745.28051 89.7   772.98572    4  3  1   739.65876 61.1   772.98546
  3  3  1   745.30634 85.9   773.01155    5  5  1   698.40783 86.3   773.01111
  3  3  1   745.33911 69.0   773.04432    4  3  1   739.71673 58.4   773.04343
  3  3  1   745.35812 36.3   773.06333    4  3  1   739.73602 87.3   773.06272
  3  3  1   745.38220 89.3   773.08741    4  3  1   739.76048 72.5   773.08718
  3  3  1   745.39585 86.2   773.10106    5  5  1   698.49740 52.2   773.10068
  3  3  1   745.42638 87.3   773.13159    5  5  1   698.52788 87.2   773.13116
  3  3  1   745.43084 86.9   773.13605    4  3  1   739.80937 44.8   773.13607
                                          5  5  1   698.53327 84.3   773.13655
  3  3  1   745.45952 73.9   773.16473    5  5  1   698.56237 77.4   773.16565
  3  3  1   745.47273 89.1   773.17794    4  3  1   739.85092 13.2   773.17762
  3  3  1   745.48645 73.1   773.19166    4  3  1   739.86558 84.4   773.19228
  3  3  1   745.55779 60.8   773.26300    4  3  1   739.93703 80.0   773.26373
  4  3  1   737.98926 43.6   771.31596    5  5  1   696.71254 50.7   771.31582
  4  3  1   738.05940 57.4   771.38610    5  5  1   696.78344 79.3   771.38672
  4  3  1   738.10323 50.5   771.42993    5  5  1   696.82653 34.6   771.42981
  4  3  1   738.26515 56.2   771.59185    5  5  1   696.98902 51.9   771.59230
  4  3  1   738.28833 67.8   771.61503    5  5  1   697.01231 86.5   771.61559
  4  3  1   738.34056 84.1   771.66726    5  5  1   697.06446 22.0   771.66774
  4  3  1   738.41365 30.4   771.74035    5  5  1   697.13775 85.4   771.74103
  4  3  1   738.51675 51.5   771.84345    5  5  1   697.24082 45.3   771.84410
  4  3  1   738.59180 55.7   771.91850    5  5  1   697.31607 55.4   771.91935
  4  3  1   738.72155 62.6   772.04825    5  5  1   697.44419 63.6   772.04747
  4  3  1   738.72660 79.8   772.05330    5  5  1   697.45001 87.4   772.05329
  4  3  1   738.79611 78.0   772.12281    5  5  1   697.51877 33.2   772.12205
  4  3  1   738.81737 76.7   772.14407    5  5  1   697.54119 63.8   772.14447
  4  3  1   739.00669 57.5   772.33339    5  5  1   697.73087 86.7   772.33415
  4  3  1   739.05560 57.4   772.38230    5  5  1   697.77900 20.6   772.38228
  4  3  1   739.11019 89.3   772.43689    5  5  1   697.83372 87.7   772.43700
  4  3  1   739.14894 70.8   772.47564    5  5  1   697.87304 85.5   772.47632
  4  3  1   739.18533 51.1   772.51203    5  5  1   697.90949 86.6   772.51277
  4  3  1   739.20450 68.0   772.53120    5  5  1   697.92771 57.7   772.53099
  4  3  1   739.23083 87.3   772.55753    5  5  1   697.95470 78.4   772.55798
  4  3  1   739.23615 51.5   772.56285    5  5  1   697.95910 28.1   772.56238
  4  3  1   739.25108 63.2   772.57778    5  5  1   697.97359 12.8   772.57687
  4  3  1   739.35829 84.0   772.68499    5  5  1   698.08133 19.6   772.68461
  4  3  1   739.38181 38.5   772.70851    5  5  1   698.10481 88.5   772.70809
  4  3  1   739.51043 80.5   772.83713    5  5  1   698.23325 81.0   772.83653
  4  3  1   739.73069 70.0   773.05739    5  5  1   698.45377 66.6   773.05705
  4  3  1   739.80937 44.8   773.13607    5  5  1   698.53327 84.3   773.13655
  4  3  1   739.83290 12.9   773.15960    5  5  1   698.55599 85.0   773.15927
  4  3  1   739.93703 80.0   773.26373    5  5  1   698.66142 31.3   773.26470

 Searching   5  4  2 near    779.33476
 No   1:   4  3  2       33.32401  reg   745.011 -   747.011
 No   2:   5  3  2       40.36522  reg   737.970 -   739.970
 No   3:   6  5  2       83.02684  reg   695.308 -   697.308
  4  3  2   745.01005 65.5   778.33406    5  3  2   737.96874 65.9   778.33396
  4  3  2   745.01992 75.1   778.34393    6  5  2   695.31797 87.7   778.34481
  4  3  2   745.04102 83.3   778.36503    6  5  2   695.33855 86.4   778.36539
  4  3  2   745.08480 48.6   778.40881    6  5  2   695.38195 84.3   778.40879
  4  3  2   745.15634 60.8   778.48035    6  5  2   695.45327 32.1   778.48011
  4  3  2   745.16265 76.4   778.48666    6  5  2   695.45925 43.4   778.48609
  4  3  2   745.20005 56.0   778.52406    6  5  2   695.49787 63.3   778.52471
  4  3  2   745.21677 78.3   778.54078    5  3  2   738.17640 80.0   778.54162
  4  3  2   745.23085 82.5   778.55486    6  5  2   695.52759 76.7   778.55443
  4  3  2   745.29757 73.7   778.62158    6  5  2   695.59463 87.7   778.62147
  4  3  2   745.30634 85.9   778.63035    5  3  2   738.26515 56.2   778.63037
  4  3  2   745.33307 79.4   778.65708    6  5  2   695.63090 64.1   778.65774
  4  3  2   745.34849 59.7   778.67250    5  3  2   738.30711 31.4   778.67233
  4  3  2   745.37713 74.6   778.70114    6  5  2   695.67450 85.6   778.70134
  4  3  2   745.38220 89.3   778.70621    5  3  2   738.34056 84.1   778.70578
  4  3  2   745.38676 82.6   778.71077    6  5  2   695.68349 52.4   778.71033
  4  3  2   745.39226 68.7   778.71627    6  5  2   695.68919 79.3   778.71603
  4  3  2   745.42638 87.3   778.75039    5  3  2   738.38557 65.1   778.75079
  4  3  2   745.43084 86.9   778.75485    6  5  2   695.72787 72.2   778.75471
  4  3  2   745.44406 88.7   778.76807    6  5  2   695.74137 29.2   778.76821
  4  3  2   745.44954 54.7   778.77355    6  5  2   695.74739 21.9   778.77423
  4  3  2   745.48155 87.4   778.80556    5  3  2   738.43944 67.5   778.80466
  4  3  2   745.48645 73.1   778.81046    5  3  2   738.44525 85.6   778.81047
  4  3  2   745.55779 60.8   778.88180    5  3  2   738.51675 51.5   778.88197
  4  3  2   745.61334 82.9   778.93735    5  3  2   738.57254 83.7   778.93776
  4  3  2   745.62219 78.5   778.94620    5  3  2   738.58193 86.2   778.94715
  4  3  2   745.74279 43.9   779.06680    5  3  2   738.70248 79.6   779.06770
  4  3  2   745.75262 87.4   779.07663    5  3  2   738.71205 89.6   779.07727
                                          6  5  2   696.05001 74.5   779.07685
  4  3  2   745.77500 27.0   779.09901    5  3  2   738.73308 54.0   779.09830
  4  3  2   745.80048 59.5   779.12449    6  5  2   696.09820 84.1   779.12504
  4  3  2   745.81510 87.3   779.13911    5  3  2   738.77304 73.1   779.13826
                                          6  5  2   696.11267 78.4   779.13951
  4  3  2   745.82403 50.0   779.14804    6  5  2   696.12183 67.9   779.14867
  4  3  2   745.82943 77.1   779.15344    5  3  2   738.78853 79.7   779.15375
  4  3  2   745.83458 67.5   779.15859    6  5  2   696.13141 82.3   779.15825
  4  3  2   745.91568 88.9   779.23969    5  3  2   738.87489 56.5   779.24011
  4  3  2   745.94410 68.3   779.26811    6  5  2   696.24142 13.7   779.26826
  4  3  2   745.95672 83.5   779.28073    6  5  2   696.25301 81.7   779.27985
  4  3  2   745.97873 33.8   779.30274    5  3  2   738.93839 86.6   779.30361
  4  3  2   745.99471 34.2   779.31872    5  3  2   738.95320 78.6   779.31842
  4  3  2   746.00888 20.4   779.33289    5  3  2   738.96735 55.3   779.33257
  4  3  2   746.05857 33.5   779.38258    5  3  2   739.01797 39.2   779.38319
  4  3  2   746.06473 10.1   779.38874    5  3  2   739.02377 40.7   779.38899
  4  3  2   746.07103 72.2   779.39504    5  3  2   739.02944 45.9   779.39466
  4  3  2   746.10319 82.5   779.42720    6  5  2   696.40124 88.5   779.42808
  4  3  2   746.11366 11.6   779.43767    5  3  2   739.07321 87.0   779.43843
  4  3  2   746.11911 79.1   779.44312    5  3  2   739.07867 50.8   779.44389
                                          6  5  2   696.41567 75.9   779.44251
  4  3  2   746.15411 75.5   779.47812    6  5  2   696.45223 42.9   779.47907
  4  3  2   746.18013 89.2   779.50414    5  3  2   739.13907 44.7   779.50429
  4  3  2   746.21814 65.9   779.54215    5  3  2   739.17627 76.5   779.54149
  4  3  2   746.28765 46.8   779.61166    5  3  2   739.24566 64.5   779.61088
  4  3  2   746.32253 75.6   779.64654    6  5  2   696.61983 70.4   779.64667
  4  3  2   746.35911 78.7   779.68312    6  5  2   696.65694 51.5   779.68378
  4  3  2   746.43354 35.5   779.75755    5  3  2   739.39177 63.2   779.75699
  4  3  2   746.46349 69.7   779.78750    6  5  2   696.76054 83.4   779.78738
  4  3  2   746.48633 43.7   779.81034    6  5  2   696.78344 79.3   779.81028
  4  3  2   746.52411 36.3   779.84812    5  3  2   739.48206 65.1   779.84728
  4  3  2   746.52984 74.2   779.85385    6  5  2   696.82653 34.6   779.85337
  4  3  2   746.53535 81.4   779.85936    6  5  2   696.83205 78.6   779.85889
  4  3  2   746.55188 80.2   779.87589    5  3  2   739.51043 80.5   779.87565
  4  3  2   746.59483 66.0   779.91884    6  5  2   696.89130 63.7   779.91814
  4  3  2   746.59967 39.5   779.92368    6  5  2   696.89705 82.4   779.92389
  4  3  2   746.63417 88.4   779.95818    6  5  2   696.93112 65.8   779.95796
  4  3  2   746.65038 83.4   779.97439    5  3  2   739.60966 62.6   779.97488
  4  3  2   746.69992 87.5   780.02393    5  3  2   739.65876 61.1   780.02398
  4  3  2   746.71528 73.6   780.03929    6  5  2   697.01231 86.5   780.03915
  4  3  2   746.73489 81.0   780.05890    6  5  2   697.03247 54.4   780.05931
  4  3  2   746.85075 69.5   780.17476    5  3  2   739.80937 44.8   780.17459
  4  3  2   746.85743 78.0   780.18144    5  3  2   739.81565 39.5   780.18087
  4  3  2   746.93627 45.8   780.26028    5  3  2   739.89423 43.6   780.25945
  4  3  2   746.95545 41.2   780.27946    5  3  2   739.91463 76.9   780.27985
  4  3  2   746.96289 47.8   780.28690    6  5  2   697.25984 54.1   780.28668
  4  3  2   746.97282 85.0   780.29683    6  5  2   697.27041 89.6   780.29725
  4  3  2   746.97861 38.7   780.30262    5  3  2   739.93703 80.0   780.30225
  5  3  2   738.01244 77.4   778.37766    6  5  2   695.35093 77.5   778.37777
  5  3  2   738.08904 47.7   778.45426    6  5  2   695.42809 51.5   778.45493
  5  3  2   738.14306 88.2   778.50828    6  5  2   695.48242 63.7   778.50926
  5  3  2   738.20531 87.8   778.57053    6  5  2   695.54337 43.3   778.57021
  5  3  2   738.37467 87.5   778.73989    6  5  2   695.71338 22.9   778.74022
  5  3  2   738.41365 30.4   778.77887    6  5  2   695.75269 88.1   778.77953
  5  3  2   738.44975 83.0   778.81497    6  5  2   695.78747 85.4   778.81431
  5  3  2   738.54406 64.5   778.90928    6  5  2   695.88175 88.8   778.90859
  5  3  2   738.62752 60.7   778.99274    6  5  2   695.96514 82.8   778.99198
  5  3  2   738.64589 51.1   779.01112    6  5  2   695.98526 61.4   779.01210
  5  3  2   738.71205 89.6   779.07727    6  5  2   696.05001 74.5   779.07685
  5  3  2   738.72155 62.6   779.08677    6  5  2   696.06008 71.3   779.08692
  5  3  2   738.82957 88.3   779.19479    6  5  2   696.16853 72.5   779.19537
  5  3  2   738.97255 84.4   779.33777    6  5  2   696.31083 72.4   779.33767
  5  3  2   739.03467 45.7   779.39989    6  5  2   696.37304 77.9   779.39988
  5  3  2   739.12865 77.2   779.49387    6  5  2   696.46714 74.0   779.49398
  5  3  2   739.26393 30.3   779.62915    6  5  2   696.60168 79.4   779.62852
  5  3  2   739.35321 54.9   779.71843    6  5  2   696.69085 68.3   779.71769
  5  3  2   739.44118 77.6   779.80640    6  5  2   696.77936 72.8   779.80620
  5  3  2   739.49894 73.3   779.86416    6  5  2   696.83661 70.9   779.86345
  5  3  2   739.64378 78.5   780.00900    6  5  2   696.98147 78.3   780.00831
  5  3  2   739.68941 42.1   780.05463    6  5  2   697.02716 82.3   780.05400
  5  3  2   739.81565 39.5   780.18087    6  5  2   697.15346 54.3   780.18030
  5  3  2   739.84412 12.4   780.20934    6  5  2   697.18178 76.4   780.20862
  5  3  2   739.86558 84.4   780.23080    6  5  2   697.20394 67.6   780.23078
  5  3  2   739.94187 81.9   780.30709    6  5  2   697.27987 66.0   780.30671

 Searching   6  4  3 near    787.76783
 No   1:   5  3  3       40.35448  reg   746.413 -   748.413
 No   2:   6  3  3       48.83140  reg   737.936 -   739.936
 No   3:   7  5  3       92.86053  reg   693.907 -   695.907
  5  3  3   746.45833 86.6   786.81281    6  3  3   737.98125 83.7   786.81265
                                          7  5  3   693.95244 11.3   786.81297
  5  3  3   746.47987 67.4   786.83435    7  5  3   693.97352 51.9   786.83405
  5  3  3   746.49356 81.6   786.84804    7  5  3   693.98741 47.6   786.84794
  5  3  3   746.50866 87.8   786.86314    7  5  3   694.00280 61.7   786.86333
  5  3  3   746.51881 36.8   786.87329    6  3  3   738.04177 52.2   786.87317
  5  3  3   746.52411 36.3   786.87859    6  3  3   738.04757 50.6   786.87897
  5  3  3   746.53535 81.4   786.88983    6  3  3   738.05940 57.4   786.89080
  5  3  3   746.54197 10.8   786.89645    6  3  3   738.06419 56.5   786.89559
  5  3  3   746.55188 80.2   786.90636    6  3  3   738.07481 74.9   786.90621
  5  3  3   746.56624 70.0   786.92072    6  3  3   738.08904 47.7   786.92044
  5  3  3   746.57191 85.0   786.92639    7  5  3   694.06604 83.0   786.92657
  5  3  3   746.57924 67.5   786.93372    6  3  3   738.10323 50.5   786.93463
  5  3  3   746.63956 35.9   786.99404    6  3  3   738.16251 81.5   786.99391
  5  3  3   746.66034 60.5   787.01482    7  5  3   694.15467 89.1   787.01520
  5  3  3   746.68811 74.4   787.04259    6  3  3   738.21111 84.6   787.04251
  5  3  3   746.69479 86.4   787.04927    7  5  3   694.18865 77.2   787.04918
  5  3  3   746.74887 86.0   787.10335    7  5  3   694.24339 64.6   787.10392
  5  3  3   746.78352 35.5   787.13800    6  3  3   738.30711 31.4   787.13851
  5  3  3   746.80988 88.3   787.16436    7  5  3   694.30444 30.0   787.16497
  5  3  3   746.85075 69.5   787.20523    6  3  3   738.37467 87.5   787.20607
  5  3  3   746.88978 62.6   787.24426    6  3  3   738.41365 30.4   787.24505
  5  3  3   746.91728 76.0   787.27176    6  3  3   738.43944 67.5   787.27084
  5  3  3   746.92680 76.8   787.28128    6  3  3   738.44975 83.0   787.28115
                                          7  5  3   694.42044 78.9   787.28097
  5  3  3   746.95545 41.2   787.30993    6  3  3   738.47895 83.2   787.31035
  5  3  3   746.97861 38.7   787.33309    6  3  3   738.50176 58.9   787.33316
  5  3  3   747.02025 89.7   787.37473    6  3  3   738.54406 64.5   787.37546
  5  3  3   747.04062 63.2   787.39510    6  3  3   738.56322 75.1   787.39462
  5  3  3   747.05481 81.4   787.40929    6  3  3   738.57697 77.5   787.40837
                                          7  5  3   694.54948 82.5   787.41001
  5  3  3   747.07965 41.6   787.43413    7  5  3   694.57403 84.7   787.43456
  5  3  3   747.09001 17.2   787.44449    7  5  3   694.58391 79.5   787.44444
  5  3  3   747.10413 79.3   787.45861    6  3  3   738.62752 60.7   787.45892
  5  3  3   747.24984 11.6   787.60432    6  3  3   738.77304 73.1   787.60444
  5  3  3   747.25574 48.6   787.61022    6  3  3   738.77874 80.3   787.61014
  5  3  3   747.26160 61.9   787.61608    6  3  3   738.78464 81.6   787.61604
  5  3  3   747.27232 52.9   787.62680    6  3  3   738.79611 78.0   787.62751
                                          7  5  3   694.76614 69.8   787.62667
  5  3  3   747.28582 27.5   787.64030    7  5  3   694.77997 81.2   787.64050
  5  3  3   747.30515 49.4   787.65963    7  5  3   694.79872 89.9   787.65925
  5  3  3   747.38562 75.3   787.74010    7  5  3   694.88031 86.4   787.74084
  5  3  3   747.42324 47.0   787.77772    7  5  3   694.91691 87.0   787.77744
  5  3  3   747.48714 88.1   787.84162    7  5  3   694.98155 70.8   787.84208
  5  3  3   747.50713 41.1   787.86161    6  3  3   739.02944 45.9   787.86084
  5  3  3   747.51442 71.3   787.86890    7  5  3   695.00780 87.5   787.86833
  5  3  3   747.52690 65.2   787.88138    6  3  3   739.04974 88.0   787.88114
  5  3  3   747.58662 69.4   787.94110    6  3  3   739.11019 89.3   787.94159
  5  3  3   747.60041 86.7   787.95489    6  3  3   739.12332 55.2   787.95472
  5  3  3   747.63131 21.9   787.98579    6  3  3   739.15410 89.8   787.98550
                                          7  5  3   695.12576 89.6   787.98629
  5  3  3   747.63649 70.7   787.99097    6  3  3   739.15990 58.2   787.99130
  5  3  3   747.65237 88.0   788.00685    6  3  3   739.17627 76.5   788.00767
                                          7  5  3   695.14562 36.9   788.00615
  5  3  3   747.68529 71.1   788.03977    7  5  3   695.17917 80.6   788.03970
  5  3  3   747.70752 82.1   788.06200    6  3  3   739.23083 87.3   788.06223
  5  3  3   747.72163 78.7   788.07611    6  3  3   739.24566 64.5   788.07706
  5  3  3   747.77652 82.7   788.13100    7  5  3   695.27108 32.9   788.13161
  5  3  3   747.78305 50.5   788.13753    7  5  3   695.27800 56.0   788.13853
  5  3  3   747.79137 88.6   788.14585    6  3  3   739.31544 57.0   788.14684
  5  3  3   747.81512 30.0   788.16960    6  3  3   739.33865 54.8   788.17005
  5  3  3   747.85075 66.0   788.20523    6  3  3   739.37285 53.6   788.20425
  5  3  3   747.86847 67.9   788.22295    6  3  3   739.39177 63.2   788.22317
  5  3  3   747.87382 87.9   788.22830    6  3  3   739.39631 46.3   788.22771
                                          7  5  3   695.36707 88.0   788.22760
  5  3  3   747.87920 44.7   788.23368    6  3  3   739.40271 66.1   788.23411
                                          7  5  3   695.37283 84.0   788.23336
  5  3  3   747.90655 76.9   788.26103    7  5  3   695.40101 86.9   788.26154
  5  3  3   747.91835 52.0   788.27283    6  3  3   739.44118 77.6   788.27258
  5  3  3   747.93435 76.5   788.28883    7  5  3   695.42809 51.5   788.28862
  5  3  3   747.97544 80.0   788.32992    6  3  3   739.49894 73.3   788.33034
  5  3  3   748.01780 89.0   788.37228    6  3  3   739.54185 84.9   788.37325
  5  3  3   748.17435 39.8   788.52883    7  5  3   695.66775 66.1   788.52828
  5  3  3   748.18079 40.9   788.53527    7  5  3   695.67450 85.6   788.53503
  5  3  3   748.28658 86.6   788.64106    6  3  3   739.80937 44.8   788.64077
  5  3  3   748.34185 65.1   788.69633    6  3  3   739.86558 84.4   788.69698
  5  3  3   748.34794 72.8   788.70242    6  3  3   739.87161 13.3   788.70301
  5  3  3   748.37033 78.5   788.72481    6  3  3   739.89423 43.6   788.72563
  5  3  3   748.38716 73.7   788.74164    7  5  3   695.88175 88.8   788.74228
  6  3  3   737.97506 82.4   786.80646    7  5  3   693.94611 82.3   786.80664
  6  3  3   737.98125 83.7   786.81265    7  5  3   693.95244 11.3   786.81297
  6  3  3   738.05448 70.4   786.88588    7  5  3   694.02503 87.6   786.88556
  6  3  3   738.05940 57.4   786.89080    7  5  3   694.03046 72.6   786.89099
  6  3  3   738.06419 56.5   786.89559    7  5  3   694.03487 88.2   786.89540
  6  3  3   738.06961 88.3   786.90101    7  5  3   694.04015 62.0   786.90068
  6  3  3   738.12818 83.6   786.95958    7  5  3   694.09847 43.0   786.95900
  6  3  3   738.14306 88.2   786.97446    7  5  3   694.11379 73.9   786.97432
  6  3  3   738.17640 80.0   787.00780    7  5  3   694.14667 76.3   787.00720
  6  3  3   738.24086 82.1   787.07227    7  5  3   694.21206 71.7   787.07259
  6  3  3   738.24807 24.9   787.07947    7  5  3   694.21895 46.2   787.07948
  6  3  3   738.25490 86.4   787.08630    7  5  3   694.22497 61.4   787.08550
  6  3  3   738.25985 81.3   787.09125    7  5  3   694.23043 40.3   787.09096
  6  3  3   738.28833 67.8   787.11973    7  5  3   694.25825 39.8   787.11878
  6  3  3   738.30711 31.4   787.13851    7  5  3   694.27870 58.8   787.13923
  6  3  3   738.31311 70.3   787.14451    7  5  3   694.28309 49.5   787.14362
  6  3  3   738.34056 84.1   787.17196    7  5  3   694.31136 57.9   787.17189
  6  3  3   738.40427 43.5   787.23567    7  5  3   694.37570 75.8   787.23623
  6  3  3   738.44975 83.0   787.28115    7  5  3   694.42044 78.9   787.28097
  6  3  3   738.56727 83.8   787.39867    7  5  3   694.53762 86.8   787.39815
  6  3  3   738.57254 83.7   787.40394    7  5  3   694.54323 68.9   787.40376
  6  3  3   738.61589 29.7   787.44729    7  5  3   694.58774 67.2   787.44827
  6  3  3   738.71205 89.6   787.54345    7  5  3   694.68200 89.8   787.54253
  6  3  3   738.72155 62.6   787.55295    7  5  3   694.69277 70.7   787.55330
  6  3  3   738.79611 78.0   787.62751    7  5  3   694.76614 69.8   787.62667
  6  3  3   738.90997 43.5   787.74137    7  5  3   694.88031 86.4   787.74084
  6  3  3   738.93839 86.6   787.76979    7  5  3   694.90889 85.7   787.76942
  6  3  3   738.95320 78.6   787.78460    7  5  3   694.92327 34.8   787.78380
  6  3  3   738.97693 77.6   787.80833    7  5  3   694.94753 80.1   787.80806
  6  3  3   738.98450 87.2   787.81590    7  5  3   694.95477 89.0   787.81530
  6  3  3   738.99466 49.0   787.82606    7  5  3   694.96534 84.4   787.82587
  6  3  3   738.99985 62.8   787.83125    7  5  3   694.97054 74.3   787.83107
  6  3  3   739.08457 84.0   787.91597    7  5  3   695.05624 88.6   787.91677
  6  3  3   739.10459 74.2   787.93599    7  5  3   695.07575 73.7   787.93628
  6  3  3   739.11019 89.3   787.94159    7  5  3   695.08166 36.6   787.94219
  6  3  3   739.15410 89.8   787.98550    7  5  3   695.12576 89.6   787.98629
  6  3  3   739.16996 21.3   788.00136    7  5  3   695.14016 73.9   788.00069
  6  3  3   739.25581 47.2   788.08721    7  5  3   695.22569 71.7   788.08622
  6  3  3   739.35321 54.9   788.18461    7  5  3   695.32433 56.6   788.18486
  6  3  3   739.36756 84.6   788.19896    7  5  3   695.33855 86.4   788.19908
  6  3  3   739.39631 46.3   788.22771    7  5  3   695.36707 88.0   788.22760
  6  3  3   739.40271 66.1   788.23411    7  5  3   695.37283 84.0   788.23336
  6  3  3   739.44118 77.6   788.27258    7  5  3   695.41123 77.9   788.27176
  6  3  3   739.48206 65.1   788.31346    7  5  3   695.45327 32.1   788.31380
  6  3  3   739.52792 30.9   788.35932    7  5  3   695.49787 63.3   788.35840
  6  3  3   739.58950 57.2   788.42090    7  5  3   695.56010 82.2   788.42063
  6  3  3   739.60966 62.6   788.44106    7  5  3   695.58041 88.8   788.44094
  6  3  3   739.81565 39.5   788.64705    7  5  3   695.78747 85.4   788.64800
  6  3  3   739.91463 76.9   788.74603    7  5  3   695.88624 82.9   788.74677
  6  3  3   739.93703 80.0   788.76843    7  5  3   695.90887 81.2   788.76940

 Searching   7  4  4 near    797.61611
 No   1:   6  3  4       48.79940  reg   747.817 -   749.817
 No   2:   7  3  4       58.73950  reg   737.877 -   739.877
 No   3:   8  5  4      104.10718  reg   692.509 -   694.509
  6  3  4   747.82121 86.4   796.62061    8  5  4   692.51307 84.3   796.62025
  6  3  4   747.85075 66.0   796.65015    7  3  4   737.91074 89.1   796.65024
  6  3  4   747.93435 76.5   796.73375    8  5  4   692.62639 49.4   796.73357
  6  3  4   747.97544 80.0   796.77484    8  5  4   692.66728 87.0   796.77446
  6  3  4   747.99904 85.6   796.79844    7  3  4   738.05940 57.4   796.79890
  6  3  4   748.01780 89.0   796.81720    8  5  4   692.70976 66.3   796.81694
  6  3  4   748.03069 79.5   796.83009    8  5  4   692.72278 41.2   796.82996
  6  3  4   748.11947 89.4   796.91887    8  5  4   692.81074 61.8   796.91792
  6  3  4   748.15416 81.7   796.95356    8  5  4   692.84705 61.5   796.95423
  6  3  4   748.18079 40.9   796.98019    7  3  4   738.24086 82.1   796.98037
  6  3  4   748.18696 70.6   796.98636    8  5  4   692.87901 86.3   796.98619
  6  3  4   748.20903 33.0   797.00843    7  3  4   738.26949 76.1   797.00899
  6  3  4   748.21569 30.7   797.01509    7  3  4   738.27485 57.1   797.01435
  6  3  4   748.37033 78.5   797.16973    8  5  4   693.06312 76.8   797.17030
  6  3  4   748.37579 33.2   797.17519    8  5  4   693.06823 84.7   797.17541
  6  3  4   748.53229 75.7   797.33169    7  3  4   738.59180 55.7   797.33130
                                          8  5  4   693.22521 69.8   797.33239
  6  3  4   748.55597 55.3   797.35537    7  3  4   738.61589 29.7   797.35539
  6  3  4   748.61598 78.5   797.41538    8  5  4   693.30825 80.7   797.41543
  6  3  4   748.64117 22.6   797.44057    8  5  4   693.33242 86.7   797.43960
  6  3  4   748.65976 75.6   797.45916    8  5  4   693.35181 85.1   797.45899
  6  3  4   748.66448 79.9   797.46388    8  5  4   693.35627 87.4   797.46345
  6  3  4   748.71798 70.4   797.51738    7  3  4   738.77874 80.3   797.51824
                                          8  5  4   693.41037 70.9   797.51755
  6  3  4   748.72376 71.7   797.52316    7  3  4   738.78464 81.6   797.52414
                                          8  5  4   693.41659 37.9   797.52377
  6  3  4   748.72957 88.2   797.52897    7  3  4   738.78853 79.7   797.52803
  6  3  4   748.73357 89.7   797.53297    8  5  4   693.42607 74.3   797.53325
  6  3  4   748.75278 81.3   797.55218    8  5  4   693.44466 20.8   797.55184
  6  3  4   748.75851 41.7   797.55791    8  5  4   693.45034 85.7   797.55752
  6  3  4   748.78187 71.0   797.58127    7  3  4   738.84252 88.1   797.58202
  6  3  4   748.81990 85.7   797.61930    7  3  4   738.88014 88.0   797.61964
                                          8  5  4   693.51284 48.5   797.62002
  6  3  4   748.82572 77.1   797.62512    8  5  4   693.51881 33.7   797.62599
  6  3  4   748.82971 75.2   797.62911    7  3  4   738.89013 87.7   797.62963
                                          8  5  4   693.52280 66.4   797.62998
  6  3  4   748.84562 43.1   797.64502    7  3  4   738.90494 41.2   797.64444
  6  3  4   748.90431 42.3   797.70371    8  5  4   693.59555 16.4   797.70273
  6  3  4   748.92479 60.5   797.72419    7  3  4   738.98450 87.2   797.72400
  6  3  4   748.94059 66.1   797.73999    7  3  4   738.99985 62.8   797.73935
                                          8  5  4   693.63188 49.7   797.73906
  6  3  4   748.94612 56.2   797.74552    7  3  4   739.00669 57.5   797.74619
  6  3  4   748.95211 83.5   797.75151    8  5  4   693.64367 32.6   797.75085
  6  3  4   748.95760 73.9   797.75700    7  3  4   739.01797 39.2   797.75747
  6  3  4   749.04458 86.0   797.84398    7  3  4   739.10459 74.2   797.84409
                                          8  5  4   693.73706 81.3   797.84424
  6  3  4   749.06417 83.1   797.86357    7  3  4   739.12332 55.2   797.86282
  6  3  4   749.12278 63.7   797.92218    8  5  4   693.81516 59.8   797.92234
  6  3  4   749.14423 89.8   797.94363    7  3  4   739.20450 68.0   797.94400
  6  3  4   749.17531 67.8   797.97471    7  3  4   739.23615 51.5   797.97565
  6  3  4   749.17965 59.5   797.97905    8  5  4   693.87177 84.4   797.97895
  6  3  4   749.18541 87.0   797.98481    7  3  4   739.24566 64.5   797.98516
  6  3  4   749.19153 40.8   797.99093    7  3  4   739.25108 63.2   797.99058
  6  3  4   749.19685 59.8   797.99625    7  3  4   739.25581 47.2   797.99531
  6  3  4   749.20262 81.4   798.00202    8  5  4   693.89424 58.0   798.00142
  6  3  4   749.23420 89.2   798.03360    8  5  4   693.92608 66.8   798.03326
  6  3  4   749.25292 85.0   798.05232    8  5  4   693.94611 82.3   798.05329
  6  3  4   749.28100 86.1   798.08040    8  5  4   693.97352 51.9   798.08070
  6  3  4   749.32246 75.7   798.12186    7  3  4   739.38181 38.5   798.12131
  6  3  4   749.32753 89.6   798.12693    8  5  4   694.01992 76.2   798.12710
  6  3  4   749.33213 76.8   798.13153    7  3  4   739.39177 63.2   798.13127
                                          8  5  4   694.02503 87.6   798.13221
  6  3  4   749.33731 70.1   798.13671    7  3  4   739.39631 46.3   798.13581
                                          8  5  4   694.03046 72.6   798.13764
  6  3  4   749.34217 80.4   798.14157    7  3  4   739.40271 66.1   798.14221
                                          8  5  4   694.03487 88.2   798.14205
  6  3  4   749.36969 84.3   798.16909    8  5  4   694.06155 79.4   798.16873
  6  3  4   749.38566 54.6   798.18506    7  3  4   739.44616 79.3   798.18566
                                          8  5  4   694.07718 73.4   798.18436
  6  3  4   749.44477 11.8   798.24417    7  3  4   739.50513 27.2   798.24463
  6  3  4   749.46209 88.0   798.26149    8  5  4   694.15467 89.1   798.26185
  6  3  4   749.49703 89.2   798.29643    8  5  4   694.18865 77.2   798.29583
  6  3  4   749.55943 84.9   798.35883    8  5  4   694.25262 89.8   798.35980
  6  3  4   749.58449 80.6   798.38389    7  3  4   739.64378 78.5   798.38328
  6  3  4   749.61307 11.4   798.41247    8  5  4   694.30444 30.0   798.41162
  6  3  4   749.61898 76.8   798.41838    8  5  4   694.31136 57.9   798.41854
  6  3  4   749.79049 80.6   798.58989    7  3  4   739.85092 13.2   798.59042
  6  3  4   749.80630 48.4   798.60570    7  3  4   739.86558 84.4   798.60508
                                          8  5  4   694.49866 69.5   798.60584
  6  3  4   749.81180 62.0   798.61120    7  3  4   739.87161 13.3   798.61111
  7  3  4   737.93747 88.0   796.67697    8  5  4   692.57007 79.3   796.67725
  7  3  4   737.96874 65.9   796.70824    8  5  4   692.60203 83.4   796.70921
  7  3  4   737.97506 82.4   796.71456    8  5  4   692.60711 64.3   796.71429
  7  3  4   737.98926 43.6   796.72876    8  5  4   692.62198 79.1   796.72916
  7  3  4   738.14306 88.2   796.88256    8  5  4   692.77594 83.5   796.88312
  7  3  4   738.40427 43.5   797.14377    8  5  4   693.03585 79.1   797.14303
  7  3  4   738.44525 85.6   797.18475    8  5  4   693.07727 87.3   797.18445
  7  3  4   738.50176 58.9   797.24126    8  5  4   693.13443 86.2   797.24161
  7  3  4   738.52510 74.9   797.26460    8  5  4   693.15709 33.8   797.26427
  7  3  4   738.59929 66.2   797.33879    8  5  4   693.23139 35.0   797.33857
  7  3  4   738.62752 60.7   797.36702    8  5  4   693.26038 88.7   797.36756
  7  3  4   738.64589 51.1   797.38540    8  5  4   693.27860 87.4   797.38578
  7  3  4   738.73308 54.0   797.47258    8  5  4   693.36518 84.6   797.47236
  7  3  4   738.75771 85.0   797.49721    8  5  4   693.38957 60.2   797.49675
  7  3  4   738.77874 80.3   797.51824    8  5  4   693.41037 70.9   797.51755
  7  3  4   738.78464 81.6   797.52414    8  5  4   693.41659 37.9   797.52377
  7  3  4   738.81737 76.7   797.55687    8  5  4   693.45034 85.7   797.55752
  7  3  4   738.84252 88.1   797.58202    8  5  4   693.47581 88.3   797.58299
  7  3  4   738.88014 88.0   797.61964    8  5  4   693.51284 48.5   797.62002
  7  3  4   738.89013 87.7   797.62963    8  5  4   693.52280 66.4   797.62998
  7  3  4   738.99985 62.8   797.73935    8  5  4   693.63188 49.7   797.73906
  7  3  4   739.10459 74.2   797.84409    8  5  4   693.73706 81.3   797.84424
  7  3  4   739.14894 70.8   797.88844    8  5  4   693.78167 83.4   797.88885
  7  3  4   739.15410 89.8   797.89360    8  5  4   693.78707 79.3   797.89425
  7  3  4   739.33122 70.0   798.07072    8  5  4   693.96366 51.3   798.07084
  7  3  4   739.39177 63.2   798.13127    8  5  4   694.02503 87.6   798.13221
  7  3  4   739.40271 66.1   798.14221    8  5  4   694.03487 88.2   798.14205
  7  3  4   739.47611 88.1   798.21561    8  5  4   694.10864 88.8   798.21582
  7  3  4   739.48206 65.1   798.22156    8  5  4   694.11379 73.9   798.22097
  7  3  4   739.48685 66.6   798.22635    8  5  4   694.11899 57.9   798.22617
  7  3  4   739.49894 73.3   798.23844    8  5  4   694.13146 84.2   798.23864
  7  3  4   739.56136 71.6   798.30086    8  5  4   694.19279 76.2   798.29997
  7  3  4   739.57966 16.4   798.31916    8  5  4   694.21206 71.7   798.31924
  7  3  4   739.58606 75.1   798.32556    8  5  4   694.21895 46.2   798.32613
  7  3  4   739.62089 68.9   798.36039    8  5  4   694.25262 89.8   798.35980
  7  3  4   739.83290 12.9   798.57240    8  5  4   694.46490 65.9   798.57208
  7  3  4   739.84412 12.4   798.58362    8  5  4   694.47623 38.6   798.58341
  7  3  4   739.86558 84.4   798.60508    8  5  4   694.49866 69.5   798.60584

 Searching   8  4  5 near    808.88361
 No   1:   7  3  5       58.66042  reg   749.223 -   751.223
 No   2:   8  3  5       70.10844  reg   737.775 -   739.775
 No   3:   9  5  5      116.77004  reg   691.114 -   693.114
  7  3  5   749.25292 85.0   807.91334    8  3  5   737.80411 59.2   807.91255
  7  3  5   749.26425 82.3   807.92467    9  5  5   691.15487 18.3   807.92491
  7  3  5   749.27532 23.1   807.93574    8  3  5   737.82741 46.5   807.93585
  7  3  5   749.28100 86.1   807.94142    9  5  5   691.17206 81.0   807.94210
  7  3  5   749.31818 84.0   807.97860    8  3  5   737.87102 64.2   807.97946
  7  3  5   749.33731 70.1   807.99773    9  5  5   691.22674 81.6   807.99678
  7  3  5   749.36969 84.3   808.03011    9  5  5   691.25986 86.5   808.02990
  7  3  5   749.38566 54.6   808.04608    8  3  5   737.93747 88.0   808.04591
  7  3  5   749.42831 27.1   808.08873    8  3  5   737.98125 83.7   808.08969
                                          9  5  5   691.31785 81.0   808.08789
  7  3  5   749.48750 55.9   808.14792    9  5  5   691.37752 85.6   808.14756
  7  3  5   749.54275 71.8   808.20317    9  5  5   691.43311 72.5   808.20315
  7  3  5   749.54751 85.2   808.20793    9  5  5   691.43847 80.0   808.20851
  7  3  5   749.63087 82.0   808.29129    9  5  5   691.52184 89.8   808.29188
  7  3  5   749.65087 54.4   808.31129    9  5  5   691.54057 68.8   808.31061
  7  3  5   749.65908 17.2   808.31950    8  3  5   738.21111 84.6   808.31955
  7  3  5   749.67397 23.1   808.33439    9  5  5   691.56343 88.7   808.33347
  7  3  5   749.70524 87.7   808.36566    9  5  5   691.59609 83.4   808.36613
  7  3  5   749.79600 59.9   808.45642    8  3  5   738.34896 85.6   808.45740
  7  3  5   749.81758 40.9   808.47800    9  5  5   691.70825 87.4   808.47829
  7  3  5   749.82325 85.7   808.48367    8  3  5   738.37467 87.5   808.48311
  7  3  5   749.84977 79.9   808.51019    9  5  5   691.73997 86.4   808.51001
  7  3  5   749.86016 88.8   808.52058    9  5  5   691.75000 60.9   808.52004
  7  3  5   749.87251 84.6   808.53293    8  3  5   738.42431 70.9   808.53275
  7  3  5   749.89692 67.7   808.55734    8  3  5   738.44975 83.0   808.55819
  7  3  5   749.92092 49.6   808.58134    8  3  5   738.47327 66.6   808.58171
                                          9  5  5   691.81155 88.9   808.58159
  7  3  5   749.93036 83.5   808.59078    8  3  5   738.48179 81.6   808.59023
  7  3  5   749.95000 77.1   808.61042    8  3  5   738.50176 58.9   808.61020
  7  3  5   749.98010 68.9   808.64052    8  3  5   738.53176 73.3   808.64020
  7  3  5   750.02154 53.8   808.68196    8  3  5   738.57254 83.7   808.68098
  7  3  5   750.08828 71.5   808.74870    9  5  5   691.97831 88.6   808.74835
  7  3  5   750.09394 65.1   808.75436    8  3  5   738.64589 51.1   808.75433
  7  3  5   750.13145 88.7   808.79187    9  5  5   692.02279 89.6   808.79283
  7  3  5   750.17000 68.0   808.83042    8  3  5   738.72155 62.6   808.82999
  7  3  5   750.17540 83.7   808.83582    8  3  5   738.72660 79.8   808.83504
                                          9  5  5   692.06553 56.7   808.83557
  7  3  5   750.18088 74.3   808.84130    8  3  5   738.73308 54.0   808.84152
                                          9  5  5   692.07041 39.5   808.84045
  7  3  5   750.21261 19.7   808.87303    9  5  5   692.10330 85.9   808.87334
  7  3  5   750.24384 53.8   808.90426    8  3  5   738.79611 78.0   808.90455
  7  3  5   750.26489 64.1   808.92531    8  3  5   738.81737 76.7   808.92581
                                          9  5  5   692.15503 67.1   808.92507
  7  3  5   750.27021 86.0   808.93063    9  5  5   692.16044 44.4   808.93048
  7  3  5   750.31641 62.2   808.97683    9  5  5   692.20742 85.7   808.97746
  7  3  5   750.32271 50.7   808.98313    8  3  5   738.87489 56.5   808.98333
  7  3  5   750.32763 68.4   808.98805    8  3  5   738.88014 88.0   808.98858
  7  3  5   750.33763 84.3   808.99805    8  3  5   738.89013 87.7   808.99857
  7  3  5   750.35293 84.3   809.01335    8  3  5   738.90494 41.2   809.01338
  7  3  5   750.42582 78.2   809.08624    8  3  5   738.97693 77.6   809.08537
  7  3  5   750.47100 67.5   809.13142    8  3  5   739.02377 40.7   809.13221
                                          9  5  5   692.36220 79.4   809.13224
  7  3  5   750.58024 85.3   809.24066    9  5  5   692.47057 34.7   809.24061
  7  3  5   750.59712 66.3   809.25754    8  3  5   739.14894 70.8   809.25738
  7  3  5   750.60819 80.7   809.26861    8  3  5   739.15990 58.2   809.26834
  7  3  5   750.61773 68.9   809.27815    8  3  5   739.16996 21.3   809.27840
  7  3  5   750.65244 36.0   809.31286    8  3  5   739.20450 68.0   809.31294
  7  3  5   750.66218 88.0   809.32260    9  5  5   692.55238 84.0   809.32242
  7  3  5   750.68992 88.5   809.35034    8  3  5   739.24131 55.6   809.34975
  7  3  5   750.72154 72.8   809.38196    8  3  5   739.27376 53.9   809.38220
                                          9  5  5   692.61245 56.0   809.38249
  7  3  5   750.76872 83.4   809.42914    8  3  5   739.32123 86.3   809.42967
  7  3  5   750.78016 83.2   809.44058    8  3  5   739.33122 70.0   809.43966
  7  3  5   750.82028 47.6   809.48070    8  3  5   739.37285 53.6   809.48129
                                          9  5  5   692.70976 66.3   809.47980
  7  3  5   750.82990 87.2   809.49032    8  3  5   739.38181 38.5   809.49025
  7  3  5   750.87574 86.6   809.53616    9  5  5   692.76561 87.9   809.53565
  7  3  5   750.89995 38.0   809.56037    8  3  5   739.45105 83.7   809.55949
  7  3  5   750.91549 80.7   809.57591    9  5  5   692.80551 12.5   809.57555
  7  3  5   750.94995 70.5   809.61037    9  5  5   692.84122 84.4   809.61126
  7  3  5   750.99983 15.0   809.66025    9  5  5   692.88959 65.8   809.65963
  7  3  5   751.03085 36.8   809.69127    9  5  5   692.92189 85.8   809.69193
  7  3  5   751.04126 39.1   809.70168    9  5  5   692.93175 61.1   809.70179
  7  3  5   751.04693 88.3   809.70735    9  5  5   692.93658 89.0   809.70662
  7  3  5   751.05838 36.9   809.71880    8  3  5   739.60966 62.6   809.71810
  7  3  5   751.11314 59.3   809.77356    8  3  5   739.66439 74.3   809.77283
  7  3  5   751.13812 63.4   809.79854    8  3  5   739.68941 42.1   809.79785
  7  3  5   751.16301 86.5   809.82343    9  5  5   693.05407 88.9   809.82411
  7  3  5   751.17753 21.4   809.83795    9  5  5   693.06823 84.7   809.83827
  7  3  5   751.18764 57.4   809.84806    9  5  5   693.07727 87.3   809.84731
  7  3  5   751.21851 75.0   809.87893    9  5  5   693.10966 79.2   809.87970
  8  3  5   737.78359 76.6   807.89203    9  5  5   691.12264 85.1   807.89268
  8  3  5   737.86538 85.0   807.97382    9  5  5   691.20424 71.8   807.97428
  8  3  5   737.90628 80.9   808.01472    9  5  5   691.24549 65.8   808.01553
  8  3  5   738.04757 50.6   808.15601    9  5  5   691.38581 39.2   808.15585
  8  3  5   738.15104 74.2   808.25948    9  5  5   691.48959 85.0   808.25963
  8  3  5   738.15623 77.7   808.26467    9  5  5   691.49436 81.6   808.26440
  8  3  5   738.16251 81.5   808.27095    9  5  5   691.50185 60.2   808.27189
  8  3  5   738.24807 24.9   808.35651    9  5  5   691.58689 88.1   808.35693
  8  3  5   738.31311 70.3   808.42155    9  5  5   691.65150 88.2   808.42154
  8  3  5   738.34056 84.1   808.44900    9  5  5   691.67953 80.9   808.44957
  8  3  5   738.43944 67.5   808.54788    9  5  5   691.77690 84.6   808.54694
  8  3  5   738.47327 66.6   808.58171    9  5  5   691.81155 88.9   808.58159
  8  3  5   738.59180 55.7   808.70024    9  5  5   691.93116 82.9   808.70120
  8  3  5   738.62752 60.7   808.73595    9  5  5   691.96658 83.6   808.73662
  8  3  5   738.72660 79.8   808.83504    9  5  5   692.06553 56.7   808.83557
  8  3  5   738.77874 80.3   808.88718    9  5  5   692.11735 84.1   808.88739
  8  3  5   738.78464 81.6   808.89308    9  5  5   692.12246 89.9   808.89250
  8  3  5   738.78853 79.7   808.89697    9  5  5   692.12681 75.2   808.89685
  8  3  5   738.81737 76.7   808.92581    9  5  5   692.15503 67.1   808.92507
  8  3  5   738.83598 76.5   808.94442    9  5  5   692.17373 51.2   808.94377
  8  3  5   738.84252 88.1   808.95096    9  5  5   692.17994 88.4   808.94998
  8  3  5   738.93839 86.6   809.04683    9  5  5   692.27660 62.2   809.04664
  8  3  5   738.95320 78.6   809.06164    9  5  5   692.29111 65.3   809.06115
  8  3  5   738.96735 55.3   809.07579    9  5  5   692.30625 61.5   809.07629
  8  3  5   738.99466 49.0   809.10310    9  5  5   692.33281 87.5   809.10285
  8  3  5   738.99985 62.8   809.10829    9  5  5   692.33888 74.7   809.10892
  8  3  5   739.02377 40.7   809.13221    9  5  5   692.36220 79.4   809.13224
  8  3  5   739.02944 45.9   809.13788    9  5  5   692.36869 81.9   809.13873
  8  3  5   739.07867 50.8   809.18711    9  5  5   692.41731 87.7   809.18735
  8  3  5   739.08857 53.9   809.19701    9  5  5   692.42730 67.5   809.19734
  8  3  5   739.09402 86.3   809.20246    9  5  5   692.43249 86.4   809.20253
  8  3  5   739.09969 50.7   809.20813    9  5  5   692.43753 87.6   809.20757
  8  3  5   739.11019 89.3   809.21863    9  5  5   692.44792 59.5   809.21796
  8  3  5   739.11645 19.8   809.22489    9  5  5   692.45431 81.7   809.22435
  8  3  5   739.19930 14.7   809.30774    9  5  5   692.53674 82.5   809.30678
  8  3  5   739.23083 87.3   809.33927    9  5  5   692.57007 79.3   809.34011
  8  3  5   739.26393 30.3   809.37237    9  5  5   692.60203 83.4   809.37207
  8  3  5   739.27376 53.9   809.38220    9  5  5   692.61245 56.0   809.38249
  8  3  5   739.33865 54.8   809.44709    9  5  5   692.67765 53.2   809.44769
  8  3  5   739.61459 30.8   809.72303    9  5  5   692.95309 87.7   809.72313
  8  3  5   739.73069 70.0   809.83913    9  5  5   693.06823 84.7   809.83827
  8  3  5   739.76645 88.0   809.87489    9  5  5   693.10448 70.7   809.87452

 Searching   9  4  6 near    821.57445
 No   1:   8  3  6       69.93746  reg   750.637 -   752.637
 No   2:   9  3  6       82.96169  reg   737.613 -   739.613
 No   3:  10  5  6      130.85272  reg   689.722 -   691.722
  8  3  6   750.67328 77.9   820.61074   10  5  6   689.75815 89.4   820.61087
  8  3  6   750.72922 29.6   820.66668    9  3  6   737.70550 73.7   820.66719
  8  3  6   750.76872 83.4   820.70618   10  5  6   689.85395 25.2   820.70667
  8  3  6   750.79816 66.5   820.73562    9  3  6   737.77316 89.0   820.73485
  8  3  6   750.80946 50.8   820.74692   10  5  6   689.89381 40.0   820.74653
  8  3  6   750.82028 47.6   820.75774    9  3  6   737.79682 75.9   820.75851
  8  3  6   750.89037 83.8   820.82783    9  3  6   737.86538 85.0   820.82707
  8  3  6   750.97062 17.9   820.90808   10  5  6   690.05594 49.0   820.90866
  8  3  6   750.99983 15.0   820.93729    9  3  6   737.97506 82.4   820.93675
                                         10  5  6   690.08440 64.0   820.93712
  8  3  6   751.01310 35.0   820.95056    9  3  6   737.98926 43.6   820.95095
  8  3  6   751.02327 42.8   820.96073   10  5  6   690.10720 33.1   820.95992
  8  3  6   751.08385 41.8   821.02131    9  3  6   738.05940 57.4   821.02109
                                         10  5  6   690.16850 77.6   821.02122
  8  3  6   751.09855 80.7   821.03601    9  3  6   738.07481 74.9   821.03650
  8  3  6   751.11314 59.3   821.05060    9  3  6   738.08904 47.7   821.05073
                                         10  5  6   690.19766 66.0   821.05038
  8  3  6   751.14360 39.5   821.08106   10  5  6   690.22879 69.2   821.08151
  8  3  6   751.17753 21.4   821.11499   10  5  6   690.26281 89.4   821.11553
  8  3  6   751.18764 57.4   821.12510    9  3  6   738.16251 81.5   821.12420
  8  3  6   751.23352 36.2   821.17098   10  5  6   690.31765 83.2   821.17037
  8  3  6   751.25675 59.3   821.19421   10  5  6   690.34104 76.6   821.19376
  8  3  6   751.26154 27.7   821.19900   10  5  6   690.34593 60.7   821.19865
  8  3  6   751.31256 71.6   821.25002    9  3  6   738.28833 67.8   821.25002
                                         10  5  6   690.39781 68.1   821.25053
  8  3  6   751.32623 22.4   821.26369    9  3  6   738.30202 71.3   821.26371
  8  3  6   751.34714 54.0   821.28460   10  5  6   690.43215 78.5   821.28487
  8  3  6   751.36822 85.4   821.30568   10  5  6   690.45359 78.8   821.30631
  8  3  6   751.39946 79.6   821.33692    9  3  6   738.37467 87.5   821.33636
  8  3  6   751.43009 73.6   821.36755   10  5  6   690.51487 66.5   821.36759
  8  3  6   751.44925 77.5   821.38671    9  3  6   738.42431 70.9   821.38600
  8  3  6   751.47014 84.8   821.40760    9  3  6   738.44525 85.6   821.40694
  8  3  6   751.47474 72.6   821.41220    9  3  6   738.44975 83.0   821.41144
  8  3  6   751.53500 46.4   821.47246    9  3  6   738.51022 41.4   821.47191
  8  3  6   751.54053 88.4   821.47799    9  3  6   738.51675 51.5   821.47844
  8  3  6   751.55896 60.2   821.49642   10  5  6   690.64379 56.7   821.49651
  8  3  6   751.57567 39.1   821.51313   10  5  6   690.65950 36.8   821.51222
  8  3  6   751.58237 73.4   821.51983   10  5  6   690.66682 44.2   821.51954
  8  3  6   751.59128 64.0   821.52874    9  3  6   738.56727 83.8   821.52896
  8  3  6   751.59610 57.2   821.53356    9  3  6   738.57254 83.7   821.53423
  8  3  6   751.61512 57.2   821.55258    9  3  6   738.59180 55.7   821.55349
  8  3  6   751.62461 70.3   821.56207   10  5  6   690.70839 79.5   821.56111
  8  3  6   751.63938 52.4   821.57684    9  3  6   738.61589 29.7   821.57758
  8  3  6   751.68930 87.8   821.62676    9  3  6   738.66585 73.5   821.62754
  8  3  6   751.69940 51.9   821.63686   10  5  6   690.78419 79.0   821.63691
  8  3  6   751.76501 48.4   821.70247   10  5  6   690.84965 88.2   821.70237
  8  3  6   751.77111 34.4   821.70857   10  5  6   690.85522 44.6   821.70794
  8  3  6   751.77615 71.2   821.71361    9  3  6   738.75207 70.3   821.71376
  8  3  6   751.81173 24.3   821.74919   10  5  6   690.89639 88.0   821.74911
  8  3  6   751.82030 66.9   821.75776    9  3  6   738.79611 78.0   821.75780
  8  3  6   751.87865 64.7   821.81611   10  5  6   690.96301 88.2   821.81573
  8  3  6   751.89884 87.3   821.83630    9  3  6   738.87489 56.5   821.83658
  8  3  6   751.90461 78.7   821.84207    9  3  6   738.88014 88.0   821.84183
  8  3  6   751.96524 39.5   821.90270   10  5  6   691.05061 21.8   821.90333
  8  3  6   752.03204 88.8   821.96950   10  5  6   691.11585 55.7   821.96857
  8  3  6   752.05398 45.3   821.99144    9  3  6   739.02944 45.9   821.99113
  8  3  6   752.12945 73.2   822.06691    9  3  6   739.10459 74.2   822.06628
  8  3  6   752.13458 84.0   822.07204    9  3  6   739.11019 89.3   822.07188
  8  3  6   752.16151 79.2   822.09897   10  5  6   691.24549 65.8   822.09821
  8  3  6   752.17980 86.1   822.11726   10  5  6   691.26418 88.3   822.11690
  8  3  6   752.18481 89.0   822.12227    9  3  6   739.15990 58.2   822.12159
  8  3  6   752.22426 88.2   822.16172    9  3  6   739.19930 14.7   822.16099
  8  3  6   752.27446 31.9   822.21192    9  3  6   739.25108 63.2   822.21277
  8  3  6   752.27913 56.0   822.21659    9  3  6   739.25581 47.2   822.21750
  8  3  6   752.29369 86.2   822.23115   10  5  6   691.37752 85.6   822.23024
  8  3  6   752.38666 83.4   822.32412    9  3  6   739.36330 63.9   822.32499
  8  3  6   752.39245 59.3   822.32991    9  3  6   739.36756 84.6   822.32925
  8  3  6   752.44998 83.6   822.38744   10  5  6   691.53456 24.1   822.38728
  8  3  6   752.45575 72.0   822.39321   10  5  6   691.54057 68.8   822.39329
  8  3  6   752.50035 49.9   822.43781    9  3  6   739.47611 88.1   822.43780
  8  3  6   752.53533 66.1   822.47279    9  3  6   739.51043 80.5   822.47212
  8  3  6   752.63394 74.7   822.57140    9  3  6   739.60966 62.6   822.57135
  9  3  6   737.71347 12.2   820.67516   10  5  6   689.82269 69.6   820.67541
  9  3  6   737.72076 58.6   820.68245   10  5  6   689.82916 64.7   820.68188
  9  3  6   737.73257 56.5   820.69426   10  5  6   689.84129 84.9   820.69401
  9  3  6   737.78960 84.4   820.75129   10  5  6   689.89930 88.4   820.75202
  9  3  6   737.82741 46.5   820.78910   10  5  6   689.93606 59.3   820.78878
  9  3  6   737.86054 87.1   820.82223   10  5  6   689.97020 62.6   820.82292
  9  3  6   737.89909 70.2   820.86078   10  5  6   690.00754 83.6   820.86026
  9  3  6   737.97506 82.4   820.93675   10  5  6   690.08440 64.0   820.93712
  9  3  6   737.98125 83.7   820.94294   10  5  6   690.09063 54.3   820.94335
  9  3  6   738.01244 77.4   820.97413   10  5  6   690.12241 87.8   820.97513
  9  3  6   738.04177 52.2   821.00346   10  5  6   690.15070 72.9   821.00342
  9  3  6   738.05940 57.4   821.02109   10  5  6   690.16850 77.6   821.02122
  9  3  6   738.08284 69.8   821.04453   10  5  6   690.19264 59.3   821.04536
  9  3  6   738.08904 47.7   821.05073   10  5  6   690.19766 66.0   821.05038
  9  3  6   738.09355 59.5   821.05524   10  5  6   690.20246 87.4   821.05518
  9  3  6   738.25490 86.4   821.21659   10  5  6   690.36404 29.2   821.21676
  9  3  6   738.27485 57.1   821.23654   10  5  6   690.38458 52.2   821.23730
  9  3  6   738.28833 67.8   821.25002   10  5  6   690.39781 68.1   821.25053
  9  3  6   738.31311 70.3   821.27480   10  5  6   690.42143 81.3   821.27415
  9  3  6   738.31832 31.1   821.28001   10  5  6   690.42659 87.2   821.27931
  9  3  6   738.47327 66.6   821.43496   10  5  6   690.58237 82.6   821.43509
  9  3  6   738.59929 66.2   821.56098   10  5  6   690.70839 79.5   821.56111
  9  3  6   738.64589 51.1   821.60758   10  5  6   690.75552 48.4   821.60824
  9  3  6   738.66585 73.5   821.62754   10  5  6   690.77543 85.9   821.62815
  9  3  6   738.69748 79.2   821.65917   10  5  6   690.80742 87.8   821.66014
  9  3  6   738.77304 73.1   821.73473   10  5  6   690.88220 86.9   821.73492
  9  3  6   738.77874 80.3   821.74043   10  5  6   690.88716 61.7   821.73988
  9  3  6   738.82957 88.3   821.79126   10  5  6   690.93880 80.7   821.79152
  9  3  6   738.93839 86.6   821.90008   10  5  6   691.04639 16.5   821.89911
  9  3  6   739.00669 57.5   821.96838   10  5  6   691.11585 55.7   821.96857
  9  3  6   739.01342 78.9   821.97511   10  5  6   691.12264 85.1   821.97536
  9  3  6   739.19350 88.1   822.15519   10  5  6   691.30194 43.5   822.15466
  9  3  6   739.23083 87.3   822.19252   10  5  6   691.34005 81.5   822.19277
  9  3  6   739.26393 30.3   822.22562   10  5  6   691.37199 33.0   822.22471
  9  3  6   739.35829 84.0   822.31998   10  5  6   691.46779 40.1   822.32051
  9  3  6   739.40271 66.1   822.36440   10  5  6   691.51257 88.7   822.36529
  9  3  6   739.48206 65.1   822.44375   10  5  6   691.59143 86.6   822.44415
  9  3  6   739.48685 66.6   822.44854   10  5  6   691.59609 83.4   822.44881
  9  3  6   739.52792 30.9   822.48961   10  5  6   691.63626 85.7   822.48898
  9  3  6   739.54185 84.9   822.50354   10  5  6   691.65150 88.2   822.50422
