Range    : 1.000
Accuracy : 0.001
Control file  : C2HD3gr   
Spectrum file : s         

 Searching   2  2  0 near    736.78833
 No   1:   1  1  0        3.63042  reg   732.158 -   734.158
 No   2:   3  3  0       27.70560  reg   708.083 -   710.083
  1  1  0   732.17365 73.1   735.80407    3  3  0   708.09823 57.8   735.80383
  1  1  0   732.20200 68.7   735.83242    3  3  0   708.12670 84.6   735.83230
  1  1  0   732.29179 83.0   735.92221    3  3  0   708.21628 79.7   735.92188
  1  1  0   732.31161 85.3   735.94203    3  3  0   708.23560 73.6   735.94120
  1  1  0   732.31658 77.2   735.94700    3  3  0   708.24094 74.7   735.94654
  1  1  0   732.32071 78.7   735.95113    3  3  0   708.24638 48.6   735.95198
  1  1  0   732.39852 45.3   736.02894    3  3  0   708.32308 73.0   736.02868
  1  1  0   732.42731 17.3   736.05773    3  3  0   708.35271 79.2   736.05831
  1  1  0   732.44501 76.8   736.07543    3  3  0   708.36987 87.8   736.07547
  1  1  0   732.47332 83.7   736.10374    3  3  0   708.39838 88.1   736.10398
  1  1  0   732.50050 66.4   736.13092    3  3  0   708.42535 85.1   736.13095
  1  1  0   732.50673 86.9   736.13715    3  3  0   708.43130 80.1   736.13690
  1  1  0   732.54702 63.2   736.17744    3  3  0   708.47131 70.0   736.17691
  1  1  0   732.58941 58.5   736.21983    3  3  0   708.51432 78.1   736.21992
  1  1  0   732.63105 73.8   736.26147    3  3  0   708.55509 84.0   736.26069
  1  1  0   732.84728 51.1   736.47770    3  3  0   708.77209 89.9   736.47769
  1  1  0   732.88081 49.5   736.51123    3  3  0   708.80608 83.9   736.51168
  1  1  0   733.03615 55.9   736.66657    3  3  0   708.96118 77.4   736.66678
  1  1  0   733.06872 49.5   736.69914    3  3  0   708.99333 89.7   736.69893
  1  1  0   733.07473 56.0   736.70515    3  3  0   708.99928 71.9   736.70488
  1  1  0   733.10751 88.0   736.73793    3  3  0   709.03225 44.0   736.73785
  1  1  0   733.17194 88.8   736.80236    3  3  0   709.09607 87.3   736.80167
  1  1  0   733.27099 89.7   736.90141    3  3  0   709.19631 86.1   736.90191
  1  1  0   733.27567 81.0   736.90609    3  3  0   709.20074 86.1   736.90634
  1  1  0   733.31964 78.5   736.95006    3  3  0   709.24479 75.2   736.95039
  1  1  0   733.33580 47.2   736.96622    3  3  0   709.26050 88.3   736.96610
  1  1  0   733.34038 80.9   736.97080    3  3  0   709.26511 78.5   736.97071
  1  1  0   733.39784 86.3   737.02826    3  3  0   709.32316 65.5   737.02876
  1  1  0   733.45575 72.2   737.08617    3  3  0   709.38104 88.0   737.08664
  1  1  0   733.46131 51.4   737.09173    3  3  0   709.38621 73.3   737.09181
  1  1  0   733.59868 82.4   737.22910    3  3  0   709.52430 75.5   737.22990
  1  1  0   733.62711 70.5   737.25753    3  3  0   709.55219 78.2   737.25779
  1  1  0   733.67150 58.1   737.30192    3  3  0   709.59718 35.2   737.30278
  1  1  0   733.74790 77.6   737.37832    3  3  0   709.67224 25.6   737.37784
  1  1  0   733.79480 84.0   737.42522    3  3  0   709.72037 64.9   737.42597
  1  1  0   733.99053 42.8   737.62095    3  3  0   709.91553 81.5   737.62113
  1  1  0   734.03403 73.1   737.66445    3  3  0   709.95785 85.6   737.66345
  1  1  0   734.11467 64.9   737.74509    3  3  0   710.04049 52.2   737.74609
  1  1  0   734.15211 82.5   737.78253    3  3  0   710.07764 77.5   737.78324

 Searching   3  2  1 near    741.02892
 No   1:   2  1  1        6.60191  reg   733.427 -   735.427
 No   2:   3  3  1       27.70521  reg   712.324 -   714.324
 No   3:   4  3  1       33.32670  reg   706.702 -   708.702
  2  1  1   733.42776 17.3   740.02967    3  3  1   712.32535 61.0   740.03056
                                          4  3  1   706.70320 82.0   740.02990
  2  1  1   733.45575 72.2   740.05766    4  3  1   706.73090 64.6   740.05760
  2  1  1   733.46131 51.4   740.06322    4  3  1   706.73745 27.3   740.06415
  2  1  1   733.47341 84.2   740.07532    3  3  1   712.37071 69.7   740.07592
                                          4  3  1   706.74937 39.6   740.07607
  2  1  1   733.51704 87.7   740.11895    3  3  1   712.41323 61.0   740.11844
                                          4  3  1   706.79230 89.0   740.11900
  2  1  1   733.54143 45.9   740.14334    4  3  1   706.81616 73.5   740.14286
  2  1  1   733.58786 18.7   740.18977    4  3  1   706.86376 77.2   740.19046
  2  1  1   733.59288 75.4   740.19479    4  3  1   706.86866 73.4   740.19536
  2  1  1   733.59868 82.4   740.20059    4  3  1   706.87433 65.0   740.20103
  2  1  1   733.62711 70.5   740.22902    4  3  1   706.90275 80.7   740.22945
  2  1  1   733.64996 65.4   740.25187    3  3  1   712.54696 84.0   740.25217
                                          4  3  1   706.92431 15.5   740.25101
  2  1  1   733.65529 83.0   740.25720    4  3  1   706.93092 60.6   740.25762
  2  1  1   733.65997 70.2   740.26188    3  3  1   712.55708 48.7   740.26229
  2  1  1   733.67150 58.1   740.27341    4  3  1   706.94768 73.4   740.27438
  2  1  1   733.67702 76.1   740.27893    4  3  1   706.95148 72.7   740.27818
  2  1  1   733.70091 54.7   740.30282    4  3  1   706.97658 61.3   740.30328
  2  1  1   733.71131 67.0   740.31322    3  3  1   712.60885 79.0   740.31406
  2  1  1   733.72555 81.6   740.32746    4  3  1   707.00071 89.6   740.32741
  2  1  1   733.73900 81.1   740.34091    3  3  1   712.63550 73.3   740.34071
                                          4  3  1   707.01502 81.8   740.34172
  2  1  1   733.74364 80.6   740.34555    3  3  1   712.64129 73.2   740.34650
                                          4  3  1   707.01937 87.0   740.34607
  2  1  1   733.79480 84.0   740.39671    3  3  1   712.69144 85.3   740.39665
  2  1  1   733.81055 80.2   740.41246    3  3  1   712.70810 46.9   740.41331
  2  1  1   733.82182 57.9   740.42373    3  3  1   712.71790 79.5   740.42311
  2  1  1   733.82843 61.5   740.43034    4  3  1   707.10384 70.0   740.43054
  2  1  1   733.83515 86.0   740.43706    3  3  1   712.73182 69.6   740.43703
                                          4  3  1   707.10951 84.1   740.43621
  2  1  1   733.87231 31.2   740.47422    3  3  1   712.76997 57.2   740.47518
  2  1  1   733.90320 74.6   740.50511    3  3  1   712.80068 81.0   740.50589
                                          4  3  1   707.17782 71.4   740.50452
  2  1  1   733.92029 68.2   740.52220    3  3  1   712.81650 68.3   740.52171
  2  1  1   733.96225 79.3   740.56416    3  3  1   712.85901 14.2   740.56422
  2  1  1   733.98547 74.2   740.58738    3  3  1   712.88208 55.3   740.58729
  2  1  1   734.01291 86.2   740.61482    3  3  1   712.90866 54.4   740.61387
                                          4  3  1   707.28745 75.4   740.61415
  2  1  1   734.03403 73.1   740.63594    4  3  1   707.30926 52.5   740.63596
  2  1  1   734.05231 84.6   740.65422    3  3  1   712.94887 60.8   740.65408
                                          4  3  1   707.32798 89.6   740.65468
  2  1  1   734.07380 71.6   740.67571    4  3  1   707.34909 45.9   740.67579
  2  1  1   734.08421 30.7   740.68612    4  3  1   707.35880 63.0   740.68550
  2  1  1   734.17577 54.2   740.77768    3  3  1   713.07302 79.9   740.77823
  2  1  1   734.18827 68.2   740.79018    4  3  1   707.46305 59.5   740.78975
  2  1  1   734.23511 67.4   740.83702    3  3  1   713.13260 63.5   740.83781
                                          4  3  1   707.51009 72.4   740.83679
  2  1  1   734.30184 69.6   740.90375    3  3  1   713.19917 89.6   740.90438
  2  1  1   734.30663 88.3   740.90854    3  3  1   713.20244 87.0   740.90765
  2  1  1   734.41624 80.5   741.01815    3  3  1   713.31357 64.9   741.01878
  2  1  1   734.43631 74.6   741.03822    4  3  1   707.71199 89.8   741.03869
  2  1  1   734.49135 62.7   741.09326    3  3  1   713.38845 83.8   741.09366
                                          4  3  1   707.76749 60.6   741.09419
  2  1  1   734.55160 61.1   741.15351    4  3  1   707.82680 59.8   741.15350
  2  1  1   734.60778 86.2   741.20969    4  3  1   707.88211 80.4   741.20881
  2  1  1   734.62202 55.3   741.22393    4  3  1   707.89708 89.1   741.22378
  2  1  1   734.64246 45.2   741.24437    3  3  1   713.53887 71.9   741.24408
                                          4  3  1   707.91865 89.7   741.24535
  2  1  1   734.64797 89.4   741.24988    3  3  1   713.54414 78.8   741.24935
  2  1  1   734.65946 46.8   741.26137    4  3  1   707.93449 73.0   741.26119
  2  1  1   734.67367 24.0   741.27558    4  3  1   707.94812 50.4   741.27482
  2  1  1   734.68834 72.3   741.29025    3  3  1   713.58544 84.8   741.29065
  2  1  1   734.69382 80.4   741.29573    3  3  1   713.58993 76.9   741.29514
  2  1  1   734.70138 54.6   741.30329    4  3  1   707.97613 86.1   741.30283
  2  1  1   734.71182 83.9   741.31373    3  3  1   713.60912 80.5   741.31433
  2  1  1   734.71756 17.0   741.31947    3  3  1   713.61385 26.3   741.31906
                                          4  3  1   707.99302 17.1   741.31972
  2  1  1   734.73657 27.1   741.33848    3  3  1   713.63249 15.5   741.33770
  2  1  1   734.74221 34.7   741.34412    3  3  1   713.63852 88.2   741.34373
  2  1  1   734.76302 72.3   741.36493    3  3  1   713.65942 53.0   741.36463
  2  1  1   734.76878 87.8   741.37069    3  3  1   713.66505 52.7   741.37026
  2  1  1   734.78218 77.2   741.38409    3  3  1   713.67888 54.4   741.38409
  2  1  1   734.78738 85.8   741.38929    3  3  1   713.68432 40.3   741.38953
  2  1  1   734.81354 32.2   741.41545    3  3  1   713.71118 80.0   741.41639
                                          4  3  1   708.08782 87.9   741.41452
  2  1  1   734.83646 13.0   741.43837    4  3  1   708.11230 83.3   741.43900
  2  1  1   734.87360 77.9   741.47551    3  3  1   713.77029 45.8   741.47550
  2  1  1   734.88442 47.3   741.48633    3  3  1   713.78126 62.9   741.48647
  2  1  1   734.91172 81.3   741.51363    3  3  1   713.80935 89.4   741.51456
  2  1  1   734.93050 52.1   741.53241    4  3  1   708.20559 89.1   741.53229
  2  1  1   734.96567 66.7   741.56758    4  3  1   708.24094 74.7   741.56764
  2  1  1   734.97612 79.5   741.57803    3  3  1   713.87262 67.6   741.57783
                                          4  3  1   708.25201 80.3   741.57871
  2  1  1   734.98754 38.0   741.58945    3  3  1   713.88462 76.6   741.58983
                                          4  3  1   708.26358 81.1   741.59028
  2  1  1   734.99300 77.0   741.59491    4  3  1   708.26886 73.8   741.59556
  2  1  1   734.99788 46.0   741.59979    4  3  1   708.27370 84.8   741.60040
  2  1  1   735.00283 89.8   741.60474    4  3  1   708.27850 25.8   741.60520
  2  1  1   735.01738 60.7   741.61929    3  3  1   713.91359 86.6   741.61880
  2  1  1   735.02180 74.2   741.62371    3  3  1   713.91933 89.5   741.62454
  2  1  1   735.03283 12.2   741.63474    3  3  1   713.92915 88.1   741.63436
  2  1  1   735.08741 41.5   741.68932    3  3  1   713.98501 72.3   741.69022
  2  1  1   735.09299 18.1   741.69490    3  3  1   713.98943 83.8   741.69464
  2  1  1   735.09758 78.9   741.69949    3  3  1   713.99473 12.8   741.69994
  2  1  1   735.10371 79.1   741.70562    3  3  1   714.00014 75.8   741.70535
  2  1  1   735.11675 84.1   741.71866    4  3  1   708.39282 77.7   741.71952
  2  1  1   735.13520 30.0   741.73711    3  3  1   714.03184 80.3   741.73705
                                          4  3  1   708.41041 89.0   741.73711
  2  1  1   735.16595 68.2   741.76786    4  3  1   708.44106 75.5   741.76776
  2  1  1   735.19629 31.2   741.79820    4  3  1   708.47131 70.0   741.79801
  2  1  1   735.20181 66.5   741.80372    4  3  1   708.47679 49.9   741.80349
  2  1  1   735.20668 84.9   741.80859    4  3  1   708.48175 87.1   741.80845
  2  1  1   735.21173 82.7   741.81364    4  3  1   708.48635 85.2   741.81305
  2  1  1   735.21675 63.8   741.81866    4  3  1   708.49106 89.0   741.81776
  2  1  1   735.24011 46.0   741.84202    4  3  1   708.51432 78.1   741.84102
  2  1  1   735.26750 73.4   741.86941    3  3  1   714.16488 76.0   741.87009
  2  1  1   735.28919 23.6   741.89110    4  3  1   708.56489 85.4   741.89159
  2  1  1   735.33329 41.5   741.93520    3  3  1   714.23033 89.8   741.93554
  2  1  1   735.33884 73.5   741.94075    3  3  1   714.23631 12.4   741.94152
  2  1  1   735.36774 78.3   741.96965    3  3  1   714.26423 77.4   741.96944
  2  1  1   735.40208 82.6   742.00399    4  3  1   708.67801 68.7   742.00471
  3  3  1   712.32535 61.0   740.03056    4  3  1   706.70320 82.0   740.02990
  3  3  1   712.37071 69.7   740.07592    4  3  1   706.74937 39.6   740.07607
  3  3  1   712.41323 61.0   740.11844    4  3  1   706.79230 89.0   740.11900
  3  3  1   712.45294 70.8   740.15815    4  3  1   706.83134 84.3   740.15804
  3  3  1   712.48576 74.9   740.19097    4  3  1   706.86376 77.2   740.19046
  3  3  1   712.49660 65.5   740.20181    4  3  1   706.87433 65.0   740.20103
  3  3  1   712.53364 82.5   740.23885    4  3  1   706.91306 83.6   740.23976
  3  3  1   712.55708 48.7   740.26229    4  3  1   706.93658 10.1   740.26328
  3  3  1   712.63091 88.8   740.33612    4  3  1   707.01015 89.8   740.33685
  3  3  1   712.64129 73.2   740.34650    4  3  1   707.01937 87.0   740.34607
  3  3  1   712.68606 68.3   740.39127    4  3  1   707.06455 77.1   740.39125
  3  3  1   712.70255 76.3   740.40776    4  3  1   707.08010 65.9   740.40680
  3  3  1   712.73182 69.6   740.43703    4  3  1   707.10951 84.1   740.43621
  3  3  1   712.73731 78.6   740.44252    4  3  1   707.11556 15.7   740.44226
  3  3  1   712.79186 87.2   740.49707    4  3  1   707.17137 67.3   740.49807
  3  3  1   712.83990 86.8   740.54511    4  3  1   707.21773 52.6   740.54443
  3  3  1   712.90866 54.4   740.61387    4  3  1   707.28745 75.4   740.61415
  3  3  1   712.92355 22.7   740.62876    4  3  1   707.30234 62.8   740.62904
  3  3  1   712.93803 12.8   740.64324    4  3  1   707.31586 89.1   740.64256
  3  3  1   712.94361 87.0   740.64882    4  3  1   707.32172 33.9   740.64842
  3  3  1   712.94887 60.8   740.65408    4  3  1   707.32798 89.6   740.65468
  3  3  1   713.03434 88.8   740.73955    4  3  1   707.41226 32.9   740.73896
  3  3  1   713.30313 72.9   741.00834    4  3  1   707.68239 28.9   741.00909
  3  3  1   713.32295 44.3   741.02816    4  3  1   707.70125 66.6   741.02795
  3  3  1   713.38845 83.8   741.09366    4  3  1   707.76749 60.6   741.09419
  3  3  1   713.43127 51.5   741.13648    4  3  1   707.81055 89.5   741.13725
  3  3  1   713.46420 11.6   741.16941    4  3  1   707.84227 88.3   741.16897
  3  3  1   713.48443 71.0   741.18964    4  3  1   707.86369 68.7   741.19039
  3  3  1   713.58003 40.7   741.28524    4  3  1   707.95788 85.0   741.28458
  3  3  1   713.61385 26.3   741.31906    4  3  1   707.99302 17.1   741.31972
  3  3  1   713.74884 75.6   741.45405    4  3  1   708.12670 84.6   741.45340
  3  3  1   713.83169 89.9   741.53690    4  3  1   708.21051 82.5   741.53721
  3  3  1   713.87262 67.6   741.57783    4  3  1   708.25201 80.3   741.57871
  3  3  1   713.87882 47.0   741.58403    4  3  1   708.25780 32.7   741.58450
  3  3  1   713.88462 76.6   741.58983    4  3  1   708.26358 81.1   741.59028
  3  3  1   713.89585 20.4   741.60106    4  3  1   708.27370 84.8   741.60040
  3  3  1   713.92510 74.3   741.63031    4  3  1   708.30403 86.1   741.63072
  3  3  1   713.94550 59.5   741.65071    4  3  1   708.32308 73.0   741.64977
  3  3  1   714.02624 66.6   741.73145    4  3  1   708.40385 72.0   741.73055
  3  3  1   714.03184 80.3   741.73705    4  3  1   708.41041 89.0   741.73711
  3  3  1   714.04612 86.4   741.75133    4  3  1   708.42535 85.1   741.75205
  3  3  1   714.08246 74.1   741.78767    4  3  1   708.46193 63.2   741.78863
  3  3  1   714.10698 87.8   741.81219    4  3  1   708.48635 85.2   741.81305
  3  3  1   714.14081 66.9   741.84602    4  3  1   708.51983 72.6   741.84653
  3  3  1   714.27395 87.1   741.97916    4  3  1   708.65253 68.2   741.97923
  3  3  1   714.29145 87.7   741.99666    4  3  1   708.66951 87.9   741.99621
  3  3  1   714.32901 81.4   742.03422    4  3  1   708.70839 87.9   742.03509

 Searching   4  2  2 near    746.72109
 No   1:   3  1  2       11.05245  reg   734.669 -   736.669
 No   2:   4  3  2       33.32401  reg   712.397 -   714.397
 No   3:   5  3  2       40.36522  reg   705.356 -   707.356
  3  1  2   734.67367 24.0   745.72612    5  3  2   705.36127 86.7   745.72649
  3  1  2   734.73657 27.1   745.78902    4  3  2   712.46505 65.4   745.78906
  3  1  2   734.74221 34.7   745.79466    5  3  2   705.42914 77.6   745.79436
  3  1  2   734.76878 87.8   745.82123    4  3  2   712.49660 65.5   745.82061
  3  1  2   734.77381 88.9   745.82626    5  3  2   705.46114 85.5   745.82636
  3  1  2   734.78218 77.2   745.83463    4  3  2   712.51015 69.3   745.83416
  3  1  2   734.78738 85.8   745.83983    4  3  2   712.51640 86.0   745.84041
  3  1  2   734.79324 41.3   745.84569    5  3  2   705.48014 88.5   745.84536
  3  1  2   734.81354 32.2   745.86599    5  3  2   705.50011 48.5   745.86533
  3  1  2   734.89050 70.2   745.94295    4  3  2   712.61858 69.6   745.94259
  3  1  2   734.91940 88.4   745.97185    4  3  2   712.64810 83.4   745.97211
                                          5  3  2   705.60632 13.0   745.97154
  3  1  2   734.92562 78.4   745.97807    4  3  2   712.65380 88.2   745.97781
  3  1  2   734.94596 14.8   745.99841    4  3  2   712.67417 68.3   745.99818
  3  1  2   734.95065 25.7   746.00310    5  3  2   705.63772 89.1   746.00294
  3  1  2   734.95659 72.6   746.00904    5  3  2   705.64405 14.7   746.00927
  3  1  2   734.96567 66.7   746.01812    5  3  2   705.65288 79.0   746.01810
  3  1  2   734.97612 79.5   746.02857    5  3  2   705.66299 65.7   746.02821
  3  1  2   735.00283 89.8   746.05528    4  3  2   712.73182 69.6   746.05583
                                          5  3  2   705.69041 71.9   746.05563
  3  1  2   735.02732 16.0   746.07977    5  3  2   705.71542 63.5   746.08064
  3  1  2   735.07604 88.3   746.12849    5  3  2   705.76335 86.2   746.12857
  3  1  2   735.08741 41.5   746.13986    4  3  2   712.81650 68.3   746.14051
  3  1  2   735.09299 18.1   746.14544    4  3  2   712.82073 83.7   746.14474
  3  1  2   735.09758 78.9   746.15003    5  3  2   705.78438 18.4   746.14960
  3  1  2   735.11675 84.1   746.16920    5  3  2   705.80388 60.3   746.16910
  3  1  2   735.13520 30.0   746.18765    5  3  2   705.82250 81.4   746.18772
  3  1  2   735.14104 85.1   746.19349    5  3  2   705.82803 85.8   746.19325
  3  1  2   735.14818 63.7   746.20063    4  3  2   712.87665 20.6   746.20066
  3  1  2   735.19171 48.5   746.24416    5  3  2   705.87976 10.7   746.24498
  3  1  2   735.21173 82.7   746.26418    5  3  2   705.89965 84.4   746.26487
  3  1  2   735.21675 63.8   746.26920    5  3  2   705.90405 89.0   746.26927
  3  1  2   735.24011 46.0   746.29256    4  3  2   712.96920 87.0   746.29321
  3  1  2   735.26240 89.8   746.31485    4  3  2   712.98996 83.5   746.31397
  3  1  2   735.26750 73.4   746.31995    5  3  2   705.95533 72.6   746.32055
  3  1  2   735.27183 79.9   746.32428    5  3  2   705.95951 78.6   746.32473
  3  1  2   735.28919 23.6   746.34164    5  3  2   705.97563 70.6   746.34085
  3  1  2   735.32399 72.8   746.37644    5  3  2   706.01160 79.0   746.37682
  3  1  2   735.33884 73.5   746.39129    4  3  2   713.06784 50.7   746.39185
  3  1  2   735.34823 83.4   746.40068    4  3  2   713.07761 79.9   746.40162
  3  1  2   735.36774 78.3   746.42019    4  3  2   713.09642 89.8   746.42043
  3  1  2   735.45460 86.1   746.50705    5  3  2   706.14175 80.5   746.50697
  3  1  2   735.46976 69.3   746.52221    4  3  2   713.19917 89.6   746.52318
                                          5  3  2   706.15732 57.7   746.52254
  3  1  2   735.48770 14.2   746.54015    4  3  2   713.21649 70.6   746.54050
  3  1  2   735.49327 82.3   746.54572    5  3  2   706.18050 71.2   746.54572
  3  1  2   735.54807 69.4   746.60052    5  3  2   706.23488 78.6   746.60010
  3  1  2   735.57021 21.3   746.62266    4  3  2   713.29822 84.9   746.62223
  3  1  2   735.62254 79.7   746.67499    4  3  2   713.35142 89.9   746.67543
                                          5  3  2   706.30898 63.0   746.67420
  3  1  2   735.63171 73.7   746.68416    4  3  2   713.36016 49.5   746.68417
  3  1  2   735.65640 38.7   746.70885    4  3  2   713.38413 85.8   746.70814
  3  1  2   735.66062 34.2   746.71307    4  3  2   713.38845 83.8   746.71246
  3  1  2   735.71084 75.7   746.76329    4  3  2   713.44016 51.2   746.76417
                                          5  3  2   706.39898 14.8   746.76420
  3  1  2   735.72539 21.8   746.77784    4  3  2   713.45443 16.0   746.77844
                                          5  3  2   706.41222 73.9   746.77744
  3  1  2   735.74042 81.9   746.79287    5  3  2   706.42693 19.0   746.79215
  3  1  2   735.76796 81.3   746.82041    4  3  2   713.49713 52.9   746.82114
  3  1  2   735.77255 70.9   746.82500    4  3  2   713.50191 75.3   746.82592
  3  1  2   735.80478 88.4   746.85723    5  3  2   706.49255 89.2   746.85777
  3  1  2   735.81314 86.5   746.86559    5  3  2   706.50063 76.5   746.86585
  3  1  2   735.83752 84.6   746.88997    5  3  2   706.52547 65.3   746.89069
  3  1  2   735.84883 88.8   746.90128    5  3  2   706.53623 87.9   746.90145
  3  1  2   735.86203 89.6   746.91448    4  3  2   713.58993 76.9   746.91394
  3  1  2   735.88019 11.8   746.93264    4  3  2   713.60912 80.5   746.93313
                                          5  3  2   706.56717 89.3   746.93239
  3  1  2   735.88977 54.2   746.94222    4  3  2   713.61878 67.1   746.94279
  3  1  2   735.90427 71.6   746.95672    4  3  2   713.63249 15.5   746.95650
  3  1  2   735.94883 71.0   747.00128    5  3  2   706.63544 69.6   747.00066
  3  1  2   735.95382 87.0   747.00627    5  3  2   706.64061 81.6   747.00583
  3  1  2   735.97796 65.3   747.03041    5  3  2   706.66432 44.1   747.02954
  3  1  2   736.01010 79.6   747.06255    4  3  2   713.73895 84.9   747.06296
  3  1  2   736.14891 37.7   747.20136    5  3  2   706.83627 76.0   747.20149
  3  1  2   736.15907 28.1   747.21152    5  3  2   706.84603 78.3   747.21125
  3  1  2   736.18676 87.2   747.23921    5  3  2   706.87433 65.0   747.23955
  3  1  2   736.19177 79.9   747.24422    4  3  2   713.91933 89.5   747.24334
  3  1  2   736.19656 77.2   747.24901    4  3  2   713.92510 74.3   747.24911
                                          5  3  2   706.88348 82.1   747.24870
  3  1  2   736.22145 66.5   747.27390    5  3  2   706.90812 79.6   747.27334
  3  1  2   736.22649 87.6   747.27894    5  3  2   706.91306 83.6   747.27828
  3  1  2   736.23164 69.7   747.28409    5  3  2   706.91827 48.9   747.28349
  3  1  2   736.25540 86.8   747.30785    5  3  2   706.94269 86.2   747.30791
  3  1  2   736.28235 88.9   747.33480    4  3  2   714.01095 58.2   747.33496
  3  1  2   736.30688 55.9   747.35933    4  3  2   714.03524 76.1   747.35925
  3  1  2   736.40086 88.8   747.45331    4  3  2   714.12900 12.2   747.45301
  3  1  2   736.43731 60.0   747.48976    4  3  2   714.16488 76.0   747.48889
  3  1  2   736.48453 87.3   747.53698    5  3  2   707.17137 67.3   747.53659
  3  1  2   736.49019 80.8   747.54264    5  3  2   707.17782 71.4   747.54304
  3  1  2   736.49649 68.6   747.54894    4  3  2   714.22472 83.9   747.54873
  3  1  2   736.51106 69.4   747.56351    5  3  2   707.19738 86.6   747.56260
  3  1  2   736.56285 79.4   747.61530    4  3  2   714.29145 87.7   747.61546
  3  1  2   736.57884 46.7   747.63129    4  3  2   714.30644 13.0   747.63045
  3  1  2   736.61508 51.8   747.66753    5  3  2   707.30234 62.8   747.66756
  3  1  2   736.63982 47.9   747.69227    4  3  2   714.36914 82.0   747.69315
                                          5  3  2   707.32798 89.6   747.69320
  3  1  2   736.64499 35.2   747.69744    5  3  2   707.33174 89.5   747.69696
  3  1  2   736.65068 25.0   747.70313    4  3  2   714.37856 85.2   747.70257
  3  1  2   736.66078 73.2   747.71323    4  3  2   714.38966 79.0   747.71367
  3  1  2   736.67171 85.8   747.72416    5  3  2   707.35880 63.0   747.72402
  4  3  2   712.56667 87.5   745.89068    5  3  2   705.52563 66.9   745.89085
  4  3  2   712.63550 73.3   745.95951    5  3  2   705.59485 18.8   745.96007
  4  3  2   712.64129 73.2   745.96530    5  3  2   705.60077 62.9   745.96599
  4  3  2   712.64810 83.4   745.97211    5  3  2   705.60632 13.0   745.97154
  4  3  2   712.68606 68.3   746.01007    5  3  2   705.64405 14.7   746.00927
  4  3  2   712.73182 69.6   746.05583    5  3  2   705.69041 71.9   746.05563
  4  3  2   712.91394 73.7   746.23795    5  3  2   705.87359 65.9   746.23881
  4  3  2   712.94887 60.8   746.27288    5  3  2   705.90861 76.9   746.27383
  4  3  2   713.03080 85.9   746.35481    5  3  2   705.99005 80.4   746.35527
  4  3  2   713.13260 63.5   746.45661    5  3  2   706.09109 46.1   746.45631
  4  3  2   713.14185 64.0   746.46586    5  3  2   706.10144 86.8   746.46666
  4  3  2   713.14640 20.4   746.47041    5  3  2   706.10550 87.4   746.47072
  4  3  2   713.19917 89.6   746.52318    5  3  2   706.15732 57.7   746.52254
  4  3  2   713.21073 68.3   746.53474    5  3  2   706.16966 58.4   746.53488
  4  3  2   713.24702 78.2   746.57103    5  3  2   706.20678 51.9   746.57200
  4  3  2   713.33613 68.3   746.66014    5  3  2   706.29590 86.6   746.66112
  4  3  2   713.38845 83.8   746.71246    5  3  2   706.34636 66.0   746.71158
  4  3  2   713.39349 88.1   746.71750    5  3  2   706.35283 26.3   746.71805
  4  3  2   713.44016 51.2   746.76417    5  3  2   706.39898 14.8   746.76420
  4  3  2   713.59917 70.9   746.92318    5  3  2   706.55742 29.7   746.92264
  4  3  2   713.60912 80.5   746.93313    5  3  2   706.56717 89.3   746.93239
  4  3  2   713.61385 26.3   746.93786    5  3  2   706.57267 87.8   746.93789
  4  3  2   713.71118 80.0   747.03519    5  3  2   706.66979 84.0   747.03501
  4  3  2   713.74389 89.1   747.06790    5  3  2   706.70320 82.0   747.06842
  4  3  2   713.79098 65.6   747.11499    5  3  2   706.74937 39.6   747.11459
  4  3  2   713.80935 89.4   747.13336    5  3  2   706.76804 64.6   747.13326
  4  3  2   713.87262 67.6   747.19663    5  3  2   706.83134 84.3   747.19656
  4  3  2   713.92510 74.3   747.24911    5  3  2   706.88348 82.1   747.24870
  4  3  2   713.96646 69.4   747.29047    5  3  2   706.92431 15.5   747.28953
  4  3  2   713.98943 83.8   747.31344    5  3  2   706.94768 73.4   747.31290
  4  3  2   714.03184 80.3   747.35585    5  3  2   706.99124 83.4   747.35646
  4  3  2   714.05044 44.3   747.37445    5  3  2   707.01015 89.8   747.37537
  4  3  2   714.06145 54.3   747.38546    5  3  2   707.01937 87.0   747.38459
  4  3  2   714.09070 64.2   747.41471    5  3  2   707.04958 87.0   747.41480
  4  3  2   714.14081 66.9   747.46482    5  3  2   707.09882 85.7   747.46404
  4  3  2   714.32901 81.4   747.65302    5  3  2   707.28745 75.4   747.65267
  4  3  2   714.35625 77.7   747.68026    5  3  2   707.31586 89.1   747.68108
  4  3  2   714.36337 76.9   747.68738    5  3  2   707.32172 33.9   747.68694
  4  3  2   714.36914 82.0   747.69315    5  3  2   707.32798 89.6   747.69320
  4  3  2   714.38966 79.0   747.71367    5  3  2   707.34909 45.9   747.71431

 Searching   5  2  3 near    753.89272
 No   1:   4  1  3       16.97345  reg   735.919 -   737.919
 No   2:   5  3  3       40.35448  reg   712.538 -   714.538
 No   3:   6  3  3       48.83140  reg   704.061 -   706.061
  4  1  3   735.94019 63.5   752.91364    6  3  3   704.08131 53.0   752.91271
  4  1  3   736.02986 82.3   753.00331    5  3  3   712.64810 83.4   753.00258
  4  1  3   736.04031 84.0   753.01376    5  3  3   712.65999 87.7   753.01447
  4  1  3   736.05566 11.8   753.02911    5  3  3   712.67417 68.3   753.02865
                                          6  3  3   704.19855 71.1   753.02995
  4  1  3   736.18676 87.2   753.16021    5  3  3   712.80627 38.6   753.16075
  4  1  3   736.19177 79.9   753.16522    5  3  3   712.81155 83.3   753.16603
  4  1  3   736.19656 77.2   753.17001    5  3  3   712.81650 68.3   753.17098
  4  1  3   736.22145 66.5   753.19490    5  3  3   712.83990 86.8   753.19438
  4  1  3   736.28235 88.9   753.25580    6  3  3   704.42346 87.6   753.25486
  4  1  3   736.29591 88.1   753.26936    5  3  3   712.91394 73.7   753.26842
  4  1  3   736.30688 55.9   753.28033    6  3  3   704.44877 17.9   753.28017
  4  1  3   736.37600 79.2   753.34945    5  3  3   712.99479 82.3   753.34927
  4  1  3   736.44375 65.9   753.41720    6  3  3   704.58496 85.7   753.41636
  4  1  3   736.45480 19.2   753.42825    5  3  3   713.07302 79.9   753.42750
  4  1  3   736.49649 68.6   753.46994    5  3  3   713.11593 45.5   753.47041
                                          6  3  3   704.63849 79.4   753.46989
  4  1  3   736.66078 73.2   753.63423    6  3  3   704.80367 60.9   753.63507
  4  1  3   736.68337 86.3   753.65682    5  3  3   713.30313 72.9   753.65761
  4  1  3   736.69404 83.2   753.66749    5  3  3   713.31357 64.9   753.66805
  4  1  3   736.70828 89.0   753.68173    6  3  3   704.85122 79.4   753.68262
  4  1  3   736.71338 14.2   753.68683    6  3  3   704.85630 75.4   753.68770
  4  1  3   736.72675 41.7   753.70020    5  3  3   713.34662 87.8   753.70110
  4  1  3   736.73234 81.2   753.70579    5  3  3   713.35142 89.9   753.70590
  4  1  3   736.74732 43.2   753.72077    6  3  3   704.88980 82.1   753.72120
  4  1  3   736.75933 77.2   753.73278    5  3  3   713.37837 62.8   753.73285
  4  1  3   736.76573 51.5   753.73918    5  3  3   713.38413 85.8   753.73861
                                          6  3  3   704.90877 80.6   753.74017
  4  1  3   736.88331 83.8   753.85676    5  3  3   713.50191 75.3   753.85639
  4  1  3   736.90172 76.9   753.87517    5  3  3   713.52104 79.1   753.87552
                                          6  3  3   705.04364 85.9   753.87504
  4  1  3   736.91939 81.7   753.89284    5  3  3   713.53887 71.9   753.89335
  4  1  3   736.92428 70.9   753.89773    5  3  3   713.54414 78.8   753.89862
  4  1  3   736.93541 79.6   753.90886    6  3  3   705.07737 59.7   753.90877
  4  1  3   736.94293 34.0   753.91638    6  3  3   705.08441 64.2   753.91581
  4  1  3   736.99103 71.9   753.96448    5  3  3   713.60912 80.5   753.96360
                                          6  3  3   705.13247 89.1   753.96387
  4  1  3   737.00567 88.5   753.97912    5  3  3   713.62381 54.8   753.97829
  4  1  3   737.03414 16.3   754.00759    5  3  3   713.65380 70.7   754.00828
  4  1  3   737.04372 35.5   754.01717    6  3  3   705.18487 85.8   754.01627
  4  1  3   737.04949 85.1   754.02294    6  3  3   705.19241 78.1   754.02381
  4  1  3   737.09188 62.6   754.06533    5  3  3   713.71118 80.0   754.06566
  4  1  3   737.14326 77.9   754.11671    6  3  3   705.28461 70.0   754.11601
  4  1  3   737.15306 27.7   754.12651    6  3  3   705.29493 81.8   754.12633
  4  1  3   737.15847 87.9   754.13192    6  3  3   705.29995 71.7   754.13135
  4  1  3   737.16318 83.0   754.13663    5  3  3   713.78126 62.9   754.13574
  4  1  3   737.17842 60.5   754.15187    5  3  3   713.79769 57.0   754.15217
  4  1  3   737.29447 70.6   754.26792    5  3  3   713.91359 86.6   754.26807
  4  1  3   737.31472 88.8   754.28817    6  3  3   705.45746 78.9   754.28886
  4  1  3   737.37595 74.5   754.34940    5  3  3   713.99473 12.8   754.34921
  4  1  3   737.39333 47.2   754.36678    6  3  3   705.53540 77.9   754.36680
  4  1  3   737.40019 83.6   754.37364    6  3  3   705.54153 31.4   754.37293
  4  1  3   737.44264 70.9   754.41609    5  3  3   714.06145 54.3   754.41593
  4  1  3   737.51431 85.4   754.48776    6  3  3   705.65734 71.2   754.48874
  4  1  3   737.60540 86.2   754.57885    5  3  3   714.22472 83.9   754.57920
  4  1  3   737.66258 67.2   754.63603    6  3  3   705.80388 60.3   754.63528
  4  1  3   737.67717 65.9   754.65062    5  3  3   714.29664 79.7   754.65112
  4  1  3   737.69061 70.6   754.66406    6  3  3   705.83361 20.5   754.66501
  4  1  3   737.72076 58.6   754.69421    5  3  3   714.33916 75.8   754.69364
  4  1  3   737.74325 88.0   754.71670    6  3  3   705.88504 61.7   754.71644
  4  1  3   737.74905 59.9   754.72250    6  3  3   705.89021 84.1   754.72161
  4  1  3   737.75959 84.1   754.73304    5  3  3   714.37856 85.2   754.73304
  4  1  3   737.80411 59.2   754.77756    5  3  3   714.42310 45.8   754.77758
                                          6  3  3   705.94624 76.8   754.77764
  4  1  3   737.90628 80.9   754.87973    5  3  3   714.52564 26.3   754.88012
  4  1  3   737.91074 89.1   754.88419    5  3  3   714.53066 64.0   754.88514
  5  3  3   712.54303 72.7   752.89751    6  3  3   704.06687 18.9   752.89827
  5  3  3   712.60885 79.0   752.96333    6  3  3   704.13199 20.1   752.96339
  5  3  3   712.76997 57.2   753.12445    6  3  3   704.29401 57.4   753.12541
  5  3  3   712.79730 79.9   753.15178    6  3  3   704.32117 83.1   753.15257
  5  3  3   712.81650 68.3   753.17098    6  3  3   704.34024 89.2   753.17164
  5  3  3   712.87665 20.6   753.23113    6  3  3   704.39925 72.8   753.23065
  5  3  3   712.94361 87.0   753.29809    6  3  3   704.46593 79.3   753.29733
  5  3  3   713.11593 45.5   753.47041    6  3  3   704.63849 79.4   753.46989
  5  3  3   713.12687 63.8   753.48135    6  3  3   704.64911 82.4   753.48051
  5  3  3   713.32295 44.3   753.67743    6  3  3   704.84634 54.7   753.67774
  5  3  3   713.35142 89.9   753.70590    6  3  3   704.87539 85.7   753.70679
  5  3  3   713.40659 35.3   753.76107    6  3  3   704.92982 83.8   753.76122
  5  3  3   713.45443 16.0   753.80891    6  3  3   704.97827 47.2   753.80967
  5  3  3   713.45957 83.8   753.81405    6  3  3   704.98359 80.5   753.81499
  5  3  3   713.51589 82.1   753.87037    6  3  3   705.03926 75.1   753.87066
  5  3  3   713.52104 79.1   753.87552    6  3  3   705.04364 85.9   753.87504
  5  3  3   713.58993 76.9   753.94441    6  3  3   705.11262 83.4   753.94402
  5  3  3   713.60435 80.5   753.95883    6  3  3   705.12776 88.4   753.95916
  5  3  3   713.60912 80.5   753.96360    6  3  3   705.13247 89.1   753.96387
  5  3  3   713.61385 26.3   753.96833    6  3  3   705.13755 27.5   753.96895
  5  3  3   713.63852 88.2   753.99300    6  3  3   705.16159 35.4   753.99299
  5  3  3   713.66505 52.7   754.01953    6  3  3   705.18715 85.7   754.01855
  5  3  3   713.72580 14.7   754.08028    6  3  3   705.24855 68.3   754.07995
  5  3  3   713.87262 67.6   754.22710    6  3  3   705.39663 50.8   754.22803
  5  3  3   713.95661 79.0   754.31109    6  3  3   705.48014 88.5   754.31154
  5  3  3   714.07808 77.9   754.43256    6  3  3   705.60077 62.9   754.43217
  5  3  3   714.08246 74.1   754.43694    6  3  3   705.60632 13.0   754.43772
  5  3  3   714.12900 12.2   754.48348    6  3  3   705.65288 79.0   754.48428
  5  3  3   714.13473 73.4   754.48921    6  3  3   705.65734 71.2   754.48874
  5  3  3   714.14081 66.9   754.49529    6  3  3   705.66299 65.7   754.49439
  5  3  3   714.25537 75.8   754.60985    6  3  3   705.77798 13.1   754.60938
  5  3  3   714.35625 77.7   754.71073    6  3  3   705.87976 10.7   754.71116
  5  3  3   714.41256 57.2   754.76704    6  3  3   705.93540 59.9   754.76680
  5  3  3   714.41749 77.0   754.77197    6  3  3   705.94157 85.3   754.77297
  5  3  3   714.42310 45.8   754.77758    6  3  3   705.94624 76.8   754.77764
  5  3  3   714.42837 79.5   754.78285    6  3  3   705.95154 77.0   754.78294
  5  3  3   714.43172 85.5   754.78620    6  3  3   705.95533 72.6   754.78673
  5  3  3   714.43740 43.5   754.79188    6  3  3   705.95951 78.6   754.79091
  5  3  3   714.46645 66.4   754.82093    6  3  3   705.99005 80.4   754.82145
  5  3  3   714.47227 37.2   754.82675    6  3  3   705.99451 77.9   754.82591
  5  3  3   714.50195 55.7   754.85643    6  3  3   706.02480 86.1   754.85620
  5  3  3   714.51072 84.7   754.86520    6  3  3   706.03359 85.8   754.86499
  5  3  3   714.52042 53.8   754.87490    6  3  3   706.04363 81.3   754.87503
  5  3  3   714.53565 21.3   754.89013    6  3  3   706.05916 86.6   754.89056

 Searching   6  2  4 near    762.57011
 No   1:   5  1  4       24.35254  reg   737.218 -   739.218
 No   2:   6  3  4       48.79940  reg   712.771 -   714.771
 No   3:   7  3  4       58.73950  reg   702.831 -   704.831
  5  1  4   737.23031 84.2   761.58285    6  3  4   712.78334 81.6   761.58274
  5  1  4   737.24374 82.3   761.59628    6  3  4   712.79730 79.9   761.59670
  5  1  4   737.25767 67.6   761.61021    6  3  4   712.81155 83.3   761.61095
  5  1  4   737.26180 67.5   761.61434    7  3  4   702.87543 75.9   761.61493
  5  1  4   737.26787 84.7   761.62041    6  3  4   712.82073 83.7   761.62013
  5  1  4   737.27126 83.1   761.62380    7  3  4   702.88358 89.9   761.62308
  5  1  4   737.28437 89.5   761.63691    7  3  4   702.89811 87.7   761.63761
  5  1  4   737.29447 70.6   761.64701    6  3  4   712.84799 83.9   761.64739
  5  1  4   737.32390 11.9   761.67644    6  3  4   712.87665 20.6   761.67605
  5  1  4   737.35600 78.6   761.70854    6  3  4   712.90866 54.4   761.70806
  5  1  4   737.36084 75.7   761.71338    6  3  4   712.91394 73.7   761.71334
  5  1  4   737.37595 74.5   761.72849    6  3  4   712.92854 58.7   761.72794
  5  1  4   737.42510 19.7   761.77764    6  3  4   712.97923 54.7   761.77863
  5  1  4   737.43620 59.4   761.78874    6  3  4   712.98996 83.5   761.78936
  5  1  4   737.44264 70.9   761.79518    6  3  4   712.99479 82.3   761.79419
  5  1  4   737.46744 17.0   761.81998    6  3  4   713.02083 79.3   761.82023
  5  1  4   737.51431 85.4   761.86685    6  3  4   713.06784 50.7   761.86724
  5  1  4   737.52520 89.4   761.87774    6  3  4   713.07761 79.9   761.87701
                                          7  3  4   703.13757 82.6   761.87707
  5  1  4   737.53933 71.8   761.89187    6  3  4   713.09181 84.1   761.89121
                                          7  3  4   703.15228 79.5   761.89178
  5  1  4   737.58737 82.1   761.93991    7  3  4   703.20138 79.7   761.94088
  5  1  4   737.60540 86.2   761.95794    6  3  4   713.15910 83.2   761.95850
  5  1  4   737.61031 70.4   761.96285    7  3  4   703.22389 46.0   761.96339
  5  1  4   737.65299 81.4   762.00553    7  3  4   703.26688 64.8   762.00638
  5  1  4   737.66258 67.2   762.01512    6  3  4   713.21649 70.6   762.01589
  5  1  4   737.70550 73.7   762.05804    7  3  4   703.31845 86.1   762.05795
  5  1  4   737.73257 56.5   762.08511    7  3  4   703.34465 81.9   762.08415
  5  1  4   737.74905 59.9   762.10159    6  3  4   713.30313 72.9   762.10253
  5  1  4   737.75959 84.1   762.11213    6  3  4   713.31357 64.9   762.11297
  5  1  4   737.78359 76.6   762.13613    6  3  4   713.33613 68.3   762.13553
                                          7  3  4   703.39586 84.4   762.13536
  5  1  4   737.78960 84.4   762.14214    7  3  4   703.40239 36.1   762.14189
  5  1  4   737.80411 59.2   762.15665    7  3  4   703.41661 27.2   762.15611
  5  1  4   737.84118 44.8   762.19372    6  3  4   713.39349 88.1   762.19289
  5  1  4   737.86538 85.0   762.21792    7  3  4   703.47747 86.7   762.21697
  5  1  4   737.90628 80.9   762.25882    6  3  4   713.45957 83.8   762.25897
  5  1  4   737.91074 89.1   762.26328    6  3  4   713.46420 11.6   762.26360
  5  1  4   737.96874 65.9   762.32128    6  3  4   713.52104 79.1   762.32044
                                          7  3  4   703.58126 72.6   762.32076
  5  1  4   737.98125 83.7   762.33379    6  3  4   713.53490 85.3   762.33430
  5  1  4   738.04177 52.2   762.39431    6  3  4   713.59507 84.3   762.39447
  5  1  4   738.05448 70.4   762.40702    7  3  4   703.66728 76.5   762.40678
  5  1  4   738.12818 83.6   762.48072    7  3  4   703.74083 80.3   762.48033
  5  1  4   738.17640 80.0   762.52894    6  3  4   713.72996 18.4   762.52936
  5  1  4   738.21111 84.6   762.56365    6  3  4   713.76445 89.5   762.56385
  5  1  4   738.24086 82.1   762.59340    7  3  4   703.85402 77.8   762.59352
  5  1  4   738.25985 81.3   762.61239    6  3  4   713.81374 83.3   762.61314
  5  1  4   738.30711 31.4   762.65965    6  3  4   713.86052 61.2   762.65992
  5  1  4   738.31832 31.1   762.67086    7  3  4   703.93075 55.1   762.67025
  5  1  4   738.34896 85.6   762.70150    6  3  4   713.90173 50.4   762.70113
  5  1  4   738.36105 39.1   762.71359    6  3  4   713.91359 86.6   762.71299
                                          7  3  4   703.97455 22.6   762.71405
  5  1  4   738.40427 43.5   762.75681    6  3  4   713.95661 79.0   762.75601
  5  1  4   738.41365 30.4   762.76619    6  3  4   713.96646 69.4   762.76586
  5  1  4   738.43944 67.5   762.79198    7  3  4   704.05150 80.5   762.79100
  5  1  4   738.47327 66.6   762.82581    6  3  4   714.02624 66.6   762.82564
  5  1  4   738.47895 83.2   762.83149    6  3  4   714.03184 80.3   762.83124
  5  1  4   738.48179 81.6   762.83433    6  3  4   714.03524 76.1   762.83464
  5  1  4   738.52510 74.9   762.87764    6  3  4   714.07808 77.9   762.87748
  5  1  4   738.58193 86.2   762.93447    6  3  4   714.13473 73.4   762.93413
  5  1  4   738.62752 60.7   762.98005    6  3  4   714.18137 62.9   762.98077
  5  1  4   738.64589 51.1   762.99843    6  3  4   714.19965 86.0   762.99905
  5  1  4   738.70248 79.6   763.05502    6  3  4   714.25537 75.8   763.05477
                                          7  3  4   704.31602 25.7   763.05552
  5  1  4   738.71205 89.6   763.06459    6  3  4   714.26423 77.4   763.06363
  5  1  4   738.72155 62.6   763.07409    6  3  4   714.27395 87.1   763.07335
  5  1  4   738.72660 79.8   763.07914    7  3  4   704.34024 89.2   763.07974
  5  1  4   738.73308 54.0   763.08562    6  3  4   714.28689 76.3   763.08629
  5  1  4   738.83598 76.5   763.18852    6  3  4   714.38966 79.0   763.18906
                                          7  3  4   704.44877 17.9   763.18827
  5  1  4   738.84252 88.1   763.19506    6  3  4   714.39525 70.4   763.19465
                                          7  3  4   704.45588 86.1   763.19538
  5  1  4   738.87489 56.5   763.22743    6  3  4   714.42837 79.5   763.22777
  5  1  4   738.96735 55.3   763.31989    6  3  4   714.52042 53.8   763.31982
  5  1  4   738.97255 84.4   763.32509    6  3  4   714.52564 26.3   763.32504
                                          7  3  4   704.58496 85.7   763.32446
  5  1  4   738.97693 77.6   763.32947    6  3  4   714.53066 64.0   763.33006
  5  1  4   738.99466 49.0   763.34720    7  3  4   704.60846 86.9   763.34796
  5  1  4   738.99985 62.8   763.35239    6  3  4   714.55351 43.7   763.35291
                                          7  3  4   704.61337 85.4   763.35287
  5  1  4   739.02377 40.7   763.37631    6  3  4   714.57781 77.8   763.37721
  5  1  4   739.03467 45.7   763.38721    6  3  4   714.58699 88.3   763.38639
  5  1  4   739.05560 57.4   763.40814    6  3  4   714.60850 51.2   763.40790
  5  1  4   739.07867 50.8   763.43121    7  3  4   704.69097 36.7   763.43047
  5  1  4   739.08457 84.0   763.43711    7  3  4   704.69757 20.5   763.43707
  5  1  4   739.11019 89.3   763.46273    6  3  4   714.66367 79.6   763.46307
                                          7  3  4   704.72351 74.5   763.46301
  5  1  4   739.13907 44.7   763.49161    6  3  4   714.69160 47.5   763.49100
  5  1  4   739.17627 76.5   763.52881    7  3  4   704.78926 88.2   763.52876
  5  1  4   739.18533 51.1   763.53787    7  3  4   704.79861 82.5   763.53811
  6  3  4   712.76997 57.2   761.56937    7  3  4   702.83006 82.7   761.56956
  6  3  4   712.77632 84.3   761.57572    7  3  4   702.83538 82.3   761.57488
  6  3  4   712.81650 68.3   761.61590    7  3  4   702.87543 75.9   761.61493
  6  3  4   712.85302 49.2   761.65242    7  3  4   702.91303 78.1   761.65253
  6  3  4   712.87665 20.6   761.67605    7  3  4   702.93575 21.7   761.67525
  6  3  4   712.88208 55.3   761.68148    7  3  4   702.94216 80.1   761.68166
  6  3  4   712.92355 22.7   761.72295    7  3  4   702.98266 26.4   761.72216
  6  3  4   712.97426 76.2   761.77366    7  3  4   703.03475 42.1   761.77425
  6  3  4   712.98456 52.4   761.78396    7  3  4   703.04495 56.8   761.78445
  6  3  4   713.02479 84.3   761.82419    7  3  4   703.08459 85.4   761.82409
  6  3  4   713.03434 88.8   761.83374    7  3  4   703.09392 64.8   761.83342
  6  3  4   713.07761 79.9   761.87701    7  3  4   703.13757 82.6   761.87707
  6  3  4   713.08239 57.9   761.88179    7  3  4   703.14278 85.5   761.88228
  6  3  4   713.08762 86.3   761.88702    7  3  4   703.14702 82.9   761.88652
  6  3  4   713.09181 84.1   761.89121    7  3  4   703.15228 79.5   761.89178
  6  3  4   713.10141 34.2   761.90081    7  3  4   703.16212 62.7   761.90162
  6  3  4   713.11071 75.9   761.91011    7  3  4   703.17133 71.2   761.91083
  6  3  4   713.12687 63.8   761.92627    7  3  4   703.18671 76.4   761.92621
  6  3  4   713.14185 64.0   761.94125    7  3  4   703.20138 79.7   761.94088
  6  3  4   713.19917 89.6   761.99857    7  3  4   703.25915 60.4   761.99865
  6  3  4   713.31357 64.9   762.11297    7  3  4   703.37365 88.6   762.11315
  6  3  4   713.33613 68.3   762.13553    7  3  4   703.39586 84.4   762.13536
  6  3  4   713.34662 87.8   762.14602    7  3  4   703.40605 57.6   762.14555
  6  3  4   713.38413 85.8   762.18353    7  3  4   703.44503 80.2   762.18453
  6  3  4   713.48443 71.0   762.28383    7  3  4   703.54419 71.0   762.28369
  6  3  4   713.52104 79.1   762.32044    7  3  4   703.58126 72.6   762.32076
  6  3  4   713.53887 71.9   762.33827    7  3  4   703.59894 77.0   762.33844
  6  3  4   713.54933 55.6   762.34873    7  3  4   703.60946 89.6   762.34896
  6  3  4   713.57374 89.7   762.37314    7  3  4   703.63373 84.6   762.37323
  6  3  4   713.63249 15.5   762.43189    7  3  4   703.69193 74.3   762.43143
  6  3  4   713.73895 84.9   762.53835    7  3  4   703.79975 81.2   762.53925
  6  3  4   713.83169 89.9   762.63109    7  3  4   703.89177 54.9   762.63127
  6  3  4   713.88462 76.6   762.68402    7  3  4   703.94392 20.0   762.68342
  6  3  4   714.06145 54.3   762.86085    7  3  4   704.12194 59.8   762.86144
  6  3  4   714.25537 75.8   763.05477    7  3  4   704.31602 25.7   763.05552
  6  3  4   714.30644 13.0   763.10584    7  3  4   704.36723 80.1   763.10673
  6  3  4   714.31211 73.7   763.11151    7  3  4   704.37221 78.1   763.11171
  6  3  4   714.33916 75.8   763.13856    7  3  4   704.39925 72.8   763.13875
  6  3  4   714.36337 76.9   763.16277    7  3  4   704.42346 87.6   763.16296
  6  3  4   714.36914 82.0   763.16854    7  3  4   704.42930 57.1   763.16880
  6  3  4   714.38966 79.0   763.18906    7  3  4   704.44877 17.9   763.18827
  6  3  4   714.39525 70.4   763.19465    7  3  4   704.45588 86.1   763.19538
  6  3  4   714.43172 85.5   763.23112    7  3  4   704.49081 87.4   763.23031
  6  3  4   714.45506 51.4   763.25446    7  3  4   704.51515 77.0   763.25465
  6  3  4   714.46118 25.1   763.26058    7  3  4   704.52030 75.0   763.25980
  6  3  4   714.46645 66.4   763.26585    7  3  4   704.52634 76.3   763.26584
  6  3  4   714.51499 86.4   763.31439    7  3  4   704.57494 10.2   763.31444
  6  3  4   714.52564 26.3   763.32504    7  3  4   704.58496 85.7   763.32446
  6  3  4   714.55351 43.7   763.35291    7  3  4   704.61337 85.4   763.35287
  6  3  4   714.57781 77.8   763.37721    7  3  4   704.63849 79.4   763.37799
  6  3  4   714.61453 18.4   763.41393    7  3  4   704.67418 82.8   763.41368
  6  3  4   714.66367 79.6   763.46307    7  3  4   704.72351 74.5   763.46301
  6  3  4   714.74356 62.2   763.54296    7  3  4   704.80367 60.9   763.54317

 Searching   7  2  5 near    772.77161
 No   1:   6  1  5       33.17281  reg   738.599 -   740.599
 No   2:   7  3  5       58.66042  reg   713.111 -   715.111
 No   3:   8  3  5       70.10844  reg   701.663 -   703.663
  6  1  5   738.59180 55.7   771.76461    8  3  5   701.65698 86.9   771.76542
  6  1  5   738.59929 66.2   771.77210    7  3  5   713.11071 75.9   771.77113
  6  1  5   738.64589 51.1   771.81871    7  3  5   713.15910 83.2   771.81952
                                          8  3  5   701.70934 63.1   771.81778
  6  1  5   738.67402 80.0   771.84683    7  3  5   713.18725 84.3   771.84767
                                          8  3  5   701.73843 59.9   771.84687
  6  1  5   738.69748 79.2   771.87029    7  3  5   713.21073 68.3   771.87115
  6  1  5   738.70248 79.6   771.87529    8  3  5   701.76614 76.5   771.87458
  6  1  5   738.71205 89.6   771.88486    8  3  5   701.77614 79.7   771.88458
  6  1  5   738.77304 73.1   771.94585    8  3  5   701.83650 74.3   771.94494
  6  1  5   738.79611 78.0   771.96892    8  3  5   701.86056 81.1   771.96900
  6  1  5   738.84252 88.1   772.01533    8  3  5   701.90665 86.6   772.01509
  6  1  5   738.88014 88.0   772.05295    7  3  5   713.39349 88.1   772.05391
                                          8  3  5   701.94386 60.5   772.05230
  6  1  5   738.95320 78.6   772.12601    8  3  5   702.01827 69.5   772.12671
  6  1  5   738.96735 55.3   772.14016    8  3  5   702.03252 89.7   772.14096
  6  1  5   738.97255 84.4   772.14536    7  3  5   713.48443 71.0   772.14485
  6  1  5   738.98450 87.2   772.15731    7  3  5   713.49713 52.9   772.15755
  6  1  5   739.01342 78.9   772.18623    8  3  5   702.07749 85.8   772.18593
  6  1  5   739.01797 39.2   772.19078    8  3  5   702.08300 36.5   772.19144
  6  1  5   739.07321 87.0   772.24602    7  3  5   713.58544 84.8   772.24586
  6  1  5   739.09402 86.3   772.26683    8  3  5   702.15856 60.1   772.26700
  6  1  5   739.19350 88.1   772.36631    8  3  5   702.25799 73.5   772.36643
  6  1  5   739.19930 14.7   772.37211    7  3  5   713.71118 80.0   772.37160
  6  1  5   739.20450 68.0   772.37731    8  3  5   702.26911 73.6   772.37755
  6  1  5   739.23083 87.3   772.40364    7  3  5   713.74389 89.1   772.40431
                                          8  3  5   702.29502 18.7   772.40346
  6  1  5   739.23615 51.5   772.40896    7  3  5   713.74884 75.6   772.40926
  6  1  5   739.25108 63.2   772.42389    7  3  5   713.76445 89.5   772.42487
  6  1  5   739.27376 53.9   772.44657    7  3  5   713.78574 86.6   772.44616
  6  1  5   739.30208 51.1   772.47489    7  3  5   713.81374 83.3   772.47416
  6  1  5   739.34876 88.8   772.52157    7  3  5   713.86052 61.2   772.52094
  6  1  5   739.35829 84.0   772.53110    8  3  5   702.42219 82.2   772.53063
  6  1  5   739.37285 53.6   772.54566    7  3  5   713.88462 76.6   772.54504
                                          8  3  5   702.43815 41.3   772.54659
  6  1  5   739.47611 88.1   772.64892    7  3  5   713.98943 83.8   772.64985
  6  1  5   739.48206 65.1   772.65487    7  3  5   713.99473 12.8   772.65515
  6  1  5   739.48685 66.6   772.65966    7  3  5   714.00014 75.8   772.66056
  6  1  5   739.49894 73.3   772.67175    7  3  5   714.01095 58.2   772.67137
  6  1  5   739.54185 84.9   772.71466    8  3  5   702.60586 69.9   772.71430
  6  1  5   739.63919 88.1   772.81200    8  3  5   702.70323 87.6   772.81167
  6  1  5   739.65876 61.1   772.83157    7  3  5   714.17049 76.6   772.83091
  6  1  5   739.68941 42.1   772.86222    8  3  5   702.75311 10.9   772.86155
  6  1  5   739.73069 70.0   772.90350    8  3  5   702.79412 69.0   772.90256
  6  1  5   739.76645 88.0   772.93926    8  3  5   702.83006 82.7   772.93850
  6  1  5   739.81565 39.5   772.98846    7  3  5   714.32901 81.4   772.98943
  6  1  5   739.81970 18.9   772.99251    8  3  5   702.88358 89.9   772.99202
  6  1  5   739.83290 12.9   773.00571    7  3  5   714.34482 62.8   773.00524
                                          8  3  5   702.89811 87.7   773.00655
  6  1  5   739.84412 12.4   773.01693    7  3  5   714.35625 77.7   773.01667
  6  1  5   739.85092 13.2   773.02373    7  3  5   714.36337 76.9   773.02379
  6  1  5   739.86558 84.4   773.03839    7  3  5   714.37856 85.2   773.03898
  6  1  5   739.87161 13.3   773.04442    8  3  5   702.93575 21.7   773.04419
  6  1  5   739.93703 80.0   773.10984    8  3  5   703.00146 62.0   773.10990
  6  1  5   739.94187 81.9   773.11468    7  3  5   714.45506 51.4   773.11548
  6  1  5   739.95358 12.6   773.12639    7  3  5   714.46645 66.4   773.12687
  6  1  5   740.04986 72.2   773.22267    8  3  5   703.11351 53.0   773.22195
  6  1  5   740.05314 71.7   773.22595    8  3  5   703.11825 80.5   773.22669
  6  1  5   740.06860 73.8   773.24141    7  3  5   714.58153 74.1   773.24195
  6  1  5   740.07346 85.4   773.24627    8  3  5   703.13757 82.6   773.24601
  6  1  5   740.10235 83.0   773.27516    7  3  5   714.61453 18.4   773.27495
                                          8  3  5   703.16747 88.9   773.27591
  6  1  5   740.18919 80.2   773.36200    8  3  5   703.25332 83.3   773.36176
  6  1  5   740.19430 48.2   773.36711    8  3  5   703.25915 60.4   773.36759
  6  1  5   740.19863 79.9   773.37144    7  3  5   714.71008 52.5   773.37050
  6  1  5   740.20953 77.3   773.38234    7  3  5   714.72186 82.7   773.38228
  6  1  5   740.23055 58.4   773.40336    7  3  5   714.74356 62.2   773.40398
  6  1  5   740.26170 41.4   773.43451    7  3  5   714.77428 78.7   773.43470
  6  1  5   740.29218 11.7   773.46499    7  3  5   714.80374 12.0   773.46416
  6  1  5   740.32069 68.0   773.49350    7  3  5   714.83315 57.5   773.49357
  6  1  5   740.32640 64.1   773.49921    7  3  5   714.83791 80.2   773.49833
  6  1  5   740.33556 55.5   773.50837    7  3  5   714.84767 67.6   773.50809
  6  1  5   740.46737 88.9   773.64018    8  3  5   703.53242 83.8   773.64086
  6  1  5   740.51782 59.5   773.69063    8  3  5   703.58126 72.6   773.68970
  6  1  5   740.53383 33.0   773.70664    8  3  5   703.59894 77.0   773.70738
  6  1  5   740.60203 78.3   773.77484    7  3  5   715.11370 52.1   773.77412
                                          8  3  5   703.66728 76.5   773.77572
  7  3  5   713.11593 45.5   771.77635    8  3  5   701.66877 73.6   771.77721
  7  3  5   713.13260 63.5   771.79302    8  3  5   701.68501 67.8   771.79345
  7  3  5   713.18725 84.3   771.84767    8  3  5   701.73843 59.9   771.84687
  7  3  5   713.53887 71.9   772.19929    8  3  5   702.09099 89.1   772.19943
  7  3  5   713.57374 89.7   772.23416    8  3  5   702.12630 89.6   772.23474
  7  3  5   713.72580 14.7   772.38622    8  3  5   702.27846 77.1   772.38690
  7  3  5   713.74389 89.1   772.40431    8  3  5   702.29502 18.7   772.40346
  7  3  5   713.76445 89.5   772.42487    8  3  5   702.31706 75.8   772.42550
  7  3  5   713.81374 83.3   772.47416    8  3  5   702.36540 65.7   772.47384
  7  3  5   713.83169 89.9   772.49211    8  3  5   702.38357 80.3   772.49201
  7  3  5   713.86052 61.2   772.52094    8  3  5   702.41174 75.1   772.52018
  7  3  5   713.89585 20.4   772.55627    8  3  5   702.44829 80.9   772.55673
  7  3  5   714.23631 12.4   772.89673    8  3  5   702.78851 87.2   772.89695
  7  3  5   714.24149 87.9   772.90191    8  3  5   702.79412 69.0   772.90256
  7  3  5   714.25537 75.8   772.91579    8  3  5   702.80803 66.4   772.91647
  7  3  5   714.27395 87.1   772.93437    8  3  5   702.82598 84.4   772.93442
  7  3  5   714.31211 73.7   772.97253    8  3  5   702.86408 72.8   772.97252
  7  3  5   714.38966 79.0   773.05008    8  3  5   702.94216 80.1   773.05060
  7  3  5   714.39525 70.4   773.05567    8  3  5   702.94710 59.8   773.05554
  7  3  5   714.59156 89.5   773.25198    8  3  5   703.14278 85.5   773.25122
  7  3  5   714.60106 82.8   773.26148    8  3  5   703.15228 79.5   773.26072
  7  3  5   714.61453 18.4   773.27495    8  3  5   703.16747 88.9   773.27591
  7  3  5   714.62881 56.6   773.28923    8  3  5   703.18166 83.7   773.29010
  7  3  5   714.68818 50.6   773.34860    8  3  5   703.23922 83.9   773.34766
  7  3  5   714.69160 47.5   773.35202    8  3  5   703.24402 86.0   773.35246
  7  3  5   714.76654 82.9   773.42696    8  3  5   703.31845 86.1   773.42689
  7  3  5   714.80374 12.0   773.46416    8  3  5   703.35514 84.8   773.46358
  7  3  5   714.82208 18.9   773.48250    8  3  5   703.37365 88.6   773.48209
  7  3  5   714.82753 79.7   773.48795    8  3  5   703.37953 79.0   773.48797
  7  3  5   714.87392 83.9   773.53434    8  3  5   703.42631 88.0   773.53475
  7  3  5   714.87872 38.9   773.53914    8  3  5   703.43123 85.9   773.53967
  7  3  5   714.89359 75.0   773.55401    8  3  5   703.44503 80.2   773.55347
  7  3  5   714.91076 72.5   773.57118    8  3  5   703.46332 77.9   773.57176
  7  3  5   714.94485 80.1   773.60527    8  3  5   703.49591 84.7   773.60435
  7  3  5   714.96312 58.0   773.62354    8  3  5   703.51575 76.8   773.62419
  7  3  5   714.98583 79.1   773.64625    8  3  5   703.53842 20.8   773.64686
  7  3  5   714.99164 60.0   773.65206    8  3  5   703.54419 71.0   773.65263
  7  3  5   715.00050 24.1   773.66092    8  3  5   703.55284 89.2   773.66128
  7  3  5   715.04767 80.6   773.70809    8  3  5   703.59894 77.0   773.70738
  7  3  5   715.06205 79.2   773.72247    8  3  5   703.61400 86.6   773.72244
