Range    : 1.000
Accuracy : 0.001
Control file  : C2HD3gr   
Spectrum file : s         

 Searching   5  5  1 near    798.60328
 No   1:   4  4  1       48.31318  reg   749.290 -   751.290
 No   2:   5  4  1       55.33487  reg   742.268 -   744.268
 No   3:   6  6  1      106.57171  reg   691.032 -   693.032
  4  4  1   749.31818 84.0   797.63136    5  4  1   742.29650 84.8   797.63137
  4  4  1   749.32246 75.7   797.63564    5  4  1   742.30167 89.2   797.63654
                                          6  6  1   691.06420 63.5   797.63591
  4  4  1   749.32753 89.6   797.64071    6  6  1   691.06953 73.9   797.64124
  4  4  1   749.33213 76.8   797.64531    5  4  1   742.31125 88.7   797.64612
  4  4  1   749.33731 70.1   797.65049    5  4  1   742.31584 85.7   797.65071
                                          6  6  1   691.07924 81.2   797.65095
  4  4  1   749.34217 80.4   797.65535    5  4  1   742.32146 48.8   797.65633
  4  4  1   749.41866 77.5   797.73184    5  4  1   742.39603 80.9   797.73090
  4  4  1   749.46209 88.0   797.77527    6  6  1   691.20424 71.8   797.77595
  4  4  1   749.58449 80.6   797.89767    6  6  1   691.32581 85.1   797.89752
  4  4  1   749.61307 11.4   797.92625    5  4  1   742.59068 77.7   797.92555
  4  4  1   749.62576 85.6   797.93894    5  4  1   742.60382 80.5   797.93869
  4  4  1   749.63087 82.0   797.94405    5  4  1   742.60928 57.1   797.94415
                                          6  6  1   691.37199 33.0   797.94370
  4  4  1   749.67944 75.7   797.99262    5  4  1   742.65793 87.3   797.99280
  4  4  1   749.68492 77.9   797.99810    5  4  1   742.66241 88.7   797.99728
  4  4  1   749.69259 87.4   798.00577    5  4  1   742.67154 64.5   798.00641
                                          6  6  1   691.43311 72.5   798.00482
  4  4  1   749.70524 87.7   798.01842    5  4  1   742.68288 39.7   798.01775
  4  4  1   749.81758 40.9   798.13076    6  6  1   691.55840 86.6   798.13011
  4  4  1   749.83130 87.0   798.14448    5  4  1   742.80898 88.1   798.14385
  4  4  1   749.83616 78.3   798.14934    5  4  1   742.81379 84.8   798.14866
  4  4  1   749.84138 88.1   798.15456    6  6  1   691.58188 81.3   798.15359
  4  4  1   749.84977 79.9   798.16295    5  4  1   742.82888 44.5   798.16375
                                          6  6  1   691.59143 86.6   798.16314
  4  4  1   749.85557 87.1   798.16875    5  4  1   742.83417 87.0   798.16904
                                          6  6  1   691.59609 83.4   798.16780
  4  4  1   749.96680 40.6   798.27998    5  4  1   742.94417 48.2   798.27904
                                          6  6  1   691.70825 87.4   798.27996
  4  4  1   749.99761 24.0   798.31079    6  6  1   691.73997 86.4   798.31168
  4  4  1   750.02713 82.2   798.34031    5  4  1   743.00483 87.4   798.33970
  4  4  1   750.03127 43.8   798.34445    5  4  1   743.00921 89.5   798.34408
  4  4  1   750.05024 87.7   798.36342    5  4  1   743.02939 88.7   798.36426
  4  4  1   750.05539 88.9   798.36857    5  4  1   743.03364 52.1   798.36851
  4  4  1   750.05955 71.0   798.37273    6  6  1   691.80199 88.2   798.37370
  4  4  1   750.12015 87.0   798.43333    5  4  1   743.09907 79.8   798.43394
  4  4  1   750.18088 74.3   798.49406    5  4  1   743.15884 77.9   798.49371
  4  4  1   750.26489 64.1   798.57807    6  6  1   692.00723 60.0   798.57894
  4  4  1   750.28118 39.4   798.59436    6  6  1   692.02279 89.6   798.59450
  4  4  1   750.31058 83.3   798.62376    5  4  1   743.28971 69.2   798.62458
                                          6  6  1   692.05289 86.3   798.62460
  4  4  1   750.32271 50.7   798.63589    5  4  1   743.30140 74.4   798.63627
  4  4  1   750.38451 54.9   798.69769    6  6  1   692.12681 75.2   798.69852
  4  4  1   750.39934 87.6   798.71252    5  4  1   743.37817 29.9   798.71304
  4  4  1   750.43810 76.5   798.75128    5  4  1   743.41712 88.1   798.75199
                                          6  6  1   692.17994 88.4   798.75165
  4  4  1   750.52356 83.7   798.83674    5  4  1   743.50210 64.0   798.83697
                                          6  6  1   692.26552 66.4   798.83723
  4  4  1   750.52920 40.7   798.84238    6  6  1   692.27151 62.0   798.84322
  4  4  1   750.56227 87.0   798.87545    5  4  1   743.54009 74.6   798.87496
  4  4  1   750.59712 66.3   798.91030    6  6  1   692.33888 74.7   798.91059
  4  4  1   750.61773 68.9   798.93091    5  4  1   743.59589 85.9   798.93076
  4  4  1   750.62656 43.1   798.93974    6  6  1   692.36869 81.9   798.94040
  4  4  1   750.66218 88.0   798.97536    5  4  1   743.64128 82.6   798.97615
  4  4  1   750.69491 63.8   799.00809    5  4  1   743.67261 15.5   799.00748
  4  4  1   750.72922 29.6   799.04240    5  4  1   743.70686 87.5   799.04173
                                          6  6  1   692.47057 34.7   799.04228
  4  4  1   750.75828 64.6   799.07146    5  4  1   743.73734 85.7   799.07221
  4  4  1   750.84159 32.8   799.15477    6  6  1   692.58300 86.5   799.15471
  4  4  1   750.85844 52.5   799.17162    5  4  1   743.83594 24.0   799.17081
  4  4  1   750.87574 86.6   799.18892    5  4  1   743.85458 70.5   799.18945
  4  4  1   750.88111 75.0   799.19429    6  6  1   692.62198 79.1   799.19369
  4  4  1   750.89037 83.8   799.20355    6  6  1   692.63234 82.4   799.20405
  4  4  1   750.89995 38.0   799.21313    5  4  1   743.87845 77.5   799.21332
  4  4  1   750.91032 82.4   799.22350    5  4  1   743.88768 82.8   799.22255
  4  4  1   750.98121 32.3   799.29439    6  6  1   692.72278 41.2   799.29449
  4  4  1   751.00736 86.2   799.32054    5  4  1   743.98480 89.7   799.31967
  4  4  1   751.02327 42.8   799.33645    6  6  1   692.76561 87.9   799.33732
  4  4  1   751.06426 37.6   799.37744    6  6  1   692.80551 12.5   799.37721
  4  4  1   751.07548 46.9   799.38866    5  4  1   744.05286 44.8   799.38773
  4  4  1   751.09855 80.7   799.41173    5  4  1   744.07739 54.6   799.41226
  4  4  1   751.10466 22.9   799.41784    6  6  1   692.84705 61.5   799.41876
  4  4  1   751.13812 63.4   799.45130    6  6  1   692.87901 86.3   799.45072
  4  4  1   751.19598 63.7   799.50916    6  6  1   692.93658 89.0   799.50829
  4  4  1   751.20429 74.8   799.51747    5  4  1   744.18210 84.6   799.51697
  5  4  1   742.30167 89.2   797.63654    6  6  1   691.06420 63.5   797.63591
  5  4  1   742.30708 87.7   797.64195    6  6  1   691.06953 73.9   797.64124
  5  4  1   742.31584 85.7   797.65071    6  6  1   691.07924 81.2   797.65095
  5  4  1   742.35965 85.0   797.69452    6  6  1   691.12264 85.1   797.69435
  5  4  1   742.42458 81.9   797.75945    6  6  1   691.18869 61.7   797.76040
  5  4  1   742.48161 84.5   797.81648    6  6  1   691.24549 65.8   797.81720
  5  4  1   742.50027 50.5   797.83514    6  6  1   691.26418 88.3   797.83589
  5  4  1   742.60928 57.1   797.94415    6  6  1   691.37199 33.0   797.94370
  5  4  1   742.72562 78.0   798.06049    6  6  1   691.48959 85.0   798.06130
  5  4  1   742.74378 74.4   798.07865    6  6  1   691.50717 87.2   798.07888
  5  4  1   742.81836 75.3   798.15323    6  6  1   691.58188 81.3   798.15359
  5  4  1   742.82377 66.3   798.15864    6  6  1   691.58689 88.1   798.15860
  5  4  1   742.82888 44.5   798.16375    6  6  1   691.59143 86.6   798.16314
  5  4  1   742.94417 48.2   798.27904    6  6  1   691.70825 87.4   798.27996
  5  4  1   742.97150 51.0   798.30637    6  6  1   691.73459 80.1   798.30630
  5  4  1   742.97738 43.2   798.31225    6  6  1   691.73997 86.4   798.31168
  5  4  1   743.01470 27.4   798.34957    6  6  1   691.77690 84.6   798.34861
  5  4  1   743.03940 76.3   798.37427    6  6  1   691.80199 88.2   798.37370
  5  4  1   743.04329 89.3   798.37816    6  6  1   691.80666 82.3   798.37837
  5  4  1   743.04810 84.2   798.38297    6  6  1   691.81155 88.9   798.38326
  5  4  1   743.05354 50.2   798.38841    6  6  1   691.81608 69.6   798.38779
  5  4  1   743.19404 88.8   798.52891    6  6  1   691.95695 87.1   798.52866
  5  4  1   743.21513 87.0   798.55000    6  6  1   691.97831 88.6   798.55002
  5  4  1   743.28354 41.5   798.61841    6  6  1   692.04679 43.9   798.61850
  5  4  1   743.28971 69.2   798.62458    6  6  1   692.05289 86.3   798.62460
  5  4  1   743.30140 74.4   798.63627    6  6  1   692.06553 56.7   798.63724
  5  4  1   743.35035 74.9   798.68522    6  6  1   692.11288 81.9   798.68459
  5  4  1   743.39825 74.8   798.73312    6  6  1   692.16044 44.4   798.73215
  5  4  1   743.41712 88.1   798.75199    6  6  1   692.17994 88.4   798.75165
  5  4  1   743.43817 23.7   798.77304    6  6  1   692.20225 56.7   798.77396
  5  4  1   743.48727 85.1   798.82214    6  6  1   692.25080 51.7   798.82251
  5  4  1   743.50210 64.0   798.83697    6  6  1   692.26552 66.4   798.83723
  5  4  1   743.58474 64.7   798.91961    6  6  1   692.34817 69.9   798.91988
  5  4  1   743.69760 66.5   799.03247    6  6  1   692.45984 86.1   799.03155
  5  4  1   743.70256 86.7   799.03743    6  6  1   692.46565 82.6   799.03736
  5  4  1   743.70686 87.5   799.04173    6  6  1   692.47057 34.7   799.04228
  5  4  1   743.72122 76.4   799.05609    6  6  1   692.48536 88.0   799.05707
  5  4  1   743.78978 86.3   799.12465    6  6  1   692.55238 84.0   799.12409
  5  4  1   743.94603 76.7   799.28090    6  6  1   692.70976 66.3   799.28147
  5  4  1   744.07739 54.6   799.41226    6  6  1   692.84122 84.4   799.41293
  5  4  1   744.16234 52.7   799.49721    6  6  1   692.92597 72.0   799.49768
  5  4  1   744.17281 58.7   799.50768    6  6  1   692.93658 89.0   799.50829
  5  4  1   744.22039 80.5   799.55526    6  6  1   692.98445 87.4   799.55616
