Range    : 5.000
Accuracy : 0.001
Control file  : C2HD3gr   
Spectrum file : w         

 Searching   2  2  0 near    736.78833
 No   1:   1  1  0        3.63042  reg   728.158 -   738.158
 No   2:   3  3  0       27.70560  reg   704.083 -   714.083
  1  1  0   729.39359 32.0   733.02401    3  3  0   705.31841 86.9   733.02401
  1  1  0   730.68476 74.9   734.31518    3  3  0   706.60980 71.6   734.31540
  1  1  0   732.33156 64.3   735.96198    3  3  0   708.25720 87.1   735.96280
  1  1  0   732.35531 77.9   735.98573    3  3  0   708.27998 84.6   735.98558
  1  1  0   733.03243 83.2   736.66285    3  3  0   708.95663 81.9   736.66223
  1  1  0   733.42709 78.0   737.05751    3  3  0   709.35116 65.0   737.05676
  1  1  0   734.25126 89.1   737.88168    3  3  0   710.17603 82.6   737.88163
  1  1  0   734.67287 83.7   738.30329    3  3  0   710.59687 74.7   738.30247
  1  1  0   734.93774 64.2   738.56816    3  3  0   710.86312 88.6   738.56872
  1  1  0   735.36129 89.7   738.99171    3  3  0   711.28674 79.5   738.99234
  1  1  0   735.48901 82.3   739.11943    3  3  0   711.41373 85.0   739.11933
  1  1  0   735.55879 44.3   739.18921    3  3  0   711.48398 68.4   739.18958
  1  1  0   735.99614 89.8   739.62656    3  3  0   711.92144 88.0   739.62704
  1  1  0   736.26868 57.5   739.89910    3  3  0   712.19321 66.6   739.89881
  1  1  0   736.57866 86.8   740.20908    3  3  0   712.50249 72.2   740.20809
  1  1  0   737.13829 89.8   740.76871    3  3  0   713.06387 71.9   740.76947

 Searching   3  2  1 near    741.02892
 No   1:   2  1  1        6.60191  reg   729.427 -   739.427
 No   2:   3  3  1       27.70521  reg   708.324 -   718.324
 No   3:   4  3  1       33.32670  reg   702.702 -   712.702
  2  1  1   729.93148 86.1   736.53339    4  3  1   703.20727 76.5   736.53397
  2  1  1   730.44497 86.0   737.04688    3  3  1   709.34220 77.8   737.04741
  2  1  1   730.80051 83.0   737.40242    3  3  1   709.69760 84.1   737.40281
  2  1  1   730.87159 85.2   737.47350    4  3  1   704.14613 88.0   737.47283
  2  1  1   730.93753 86.0   737.53944    4  3  1   704.21341 89.3   737.54011
  2  1  1   731.03347 76.2   737.63538    4  3  1   704.30769 86.1   737.63439
  2  1  1   731.26520 87.0   737.86711    3  3  1   710.16247 78.2   737.86768
  2  1  1   732.26769 87.4   738.86960    4  3  1   705.54266 86.6   738.86936
  2  1  1   732.33156 64.3   738.93347    4  3  1   705.60763 75.4   738.93433
  2  1  1   732.70939 79.7   739.31130    3  3  1   711.60585 82.3   739.31106
                                          4  3  1   705.98361 71.3   739.31031
  2  1  1   732.89064 36.9   739.49255    3  3  1   711.78712 71.3   739.49233
  2  1  1   733.04234 65.8   739.64425    4  3  1   706.31692 80.7   739.64362
  2  1  1   733.85261 89.9   740.45452    4  3  1   707.12723 32.6   740.45393
  2  1  1   734.25126 89.1   740.85317    3  3  1   713.14715 79.4   740.85236
  2  1  1   734.67287 83.7   741.27478    4  3  1   707.94826 87.7   741.27496
  2  1  1   734.71647 85.1   741.31838    3  3  1   713.61311 85.5   741.31832
  2  1  1   734.73613 89.0   741.33804    3  3  1   713.63190 79.0   741.33711
  2  1  1   734.85948 88.8   741.46139    3  3  1   713.75530 67.8   741.46051
  2  1  1   735.48901 82.3   742.09092    3  3  1   714.38537 78.4   742.09058
                                          4  3  1   708.76487 79.3   742.09157
  2  1  1   736.26868 57.5   742.87059    4  3  1   709.54444 77.8   742.87114
  2  1  1   736.50366 28.3   743.10557    4  3  1   709.77983 81.9   743.10653
  2  1  1   736.72629 88.8   743.32820    4  3  1   710.00060 86.5   743.32730
  2  1  1   736.86352 77.8   743.46543    3  3  1   715.75978 78.7   743.46499
  2  1  1   737.04447 88.5   743.64638    4  3  1   710.31974 36.2   743.64644
  2  1  1   737.13829 89.8   743.74020    3  3  1   716.03426 82.7   743.73947
  2  1  1   737.27713 74.1   743.87904    3  3  1   716.17308 86.1   743.87829
  2  1  1   737.57881 89.5   744.18072    3  3  1   716.47587 56.3   744.18108
  2  1  1   738.29552 45.9   744.89743    3  3  1   717.19222 53.9   744.89743
  2  1  1   738.30747 87.2   744.90938    4  3  1   711.58254 89.2   744.90924
  2  1  1   738.36739 66.3   744.96930    3  3  1   717.26350 80.7   744.96871
                                          4  3  1   711.64334 68.9   744.97004
  2  1  1   738.39965 58.8   745.00156    3  3  1   717.29597 72.7   745.00118
  2  1  1   738.48806 63.0   745.08997    3  3  1   717.38436 89.4   745.08957
  2  1  1   738.91132 90.0   745.51323    3  3  1   717.80853 58.8   745.51374
  2  1  1   738.91805 67.1   745.51996    4  3  1   712.19321 66.6   745.51991
  2  1  1   739.19941 80.4   745.80132    3  3  1   718.09636 90.0   745.80157
  3  3  1   709.02209 86.4   736.72730    4  3  1   703.40132 88.1   736.72802
  3  3  1   709.16232 59.5   736.86753    4  3  1   703.53989 82.4   736.86659
  3  3  1   709.56589 81.4   737.27110    4  3  1   703.94367 84.4   737.27037
  3  3  1   710.03032 68.2   737.73553    4  3  1   704.40832 35.5   737.73502
  3  3  1   710.63618 40.6   738.34139    4  3  1   705.01382 63.9   738.34051
  3  3  1   711.26672 87.6   738.97193    4  3  1   705.64445 78.9   738.97115
  3  3  1   711.37980 78.7   739.08501    4  3  1   705.75840 86.5   739.08510
  3  3  1   711.60585 82.3   739.31106    4  3  1   705.98361 71.3   739.31031
  3  3  1   713.34181 86.9   741.04702    4  3  1   707.72114 51.2   741.04784
  3  3  1   714.23546 79.2   741.94067    4  3  1   708.61393 80.5   741.94063
  3  3  1   714.38537 78.4   742.09058    4  3  1   708.76487 79.3   742.09157
  3  3  1   715.29404 85.3   742.99925    4  3  1   709.67321 82.5   742.99991
  3  3  1   715.43359 82.0   743.13880    4  3  1   709.81288 88.8   743.13958
  3  3  1   715.50024 72.0   743.20545    4  3  1   709.87843 73.8   743.20513
  3  3  1   715.78408 89.2   743.48929    4  3  1   710.16247 78.2   743.48917
  3  3  1   715.92426 81.6   743.62947    4  3  1   710.30359 86.2   743.63029
  3  3  1   716.57047 79.9   744.27568    4  3  1   710.94828 82.9   744.27498
  3  3  1   716.71785 78.7   744.42306    4  3  1   711.09685 83.8   744.42355
  3  3  1   716.80666 85.5   744.51187    4  3  1   711.18485 87.5   744.51155
  3  3  1   716.82637 80.8   744.53158    4  3  1   711.20401 76.3   744.53071
  3  3  1   716.90905 85.7   744.61426    4  3  1   711.28674 79.5   744.61344
  3  3  1   717.36580 85.2   745.07101    4  3  1   711.74472 49.7   745.07142
  3  3  1   717.40867 80.8   745.11388    4  3  1   711.78712 71.3   745.11382
  3  3  1   717.54273 82.7   745.24794    4  3  1   711.92144 88.0   745.24814
  3  3  1   718.21741 40.3   745.92262    4  3  1   712.59523 78.5   745.92193

 Searching   4  2  2 near    746.72109
 No   1:   3  1  2       11.05245  reg   730.669 -   740.669
 No   2:   4  3  2       33.32401  reg   708.397 -   718.397
 No   3:   5  3  2       40.36522  reg   701.356 -   711.356
  3  1  2   730.68476 74.9   741.73721    5  3  2   701.37277 69.0   741.73799
  3  1  2   730.73574 89.7   741.78819    5  3  2   701.42379 86.7   741.78901
  3  1  2   730.76333 84.5   741.81578    5  3  2   701.45081 88.7   741.81603
  3  1  2   731.29358 80.6   742.34603    4  3  2   709.02209 86.4   742.34610
  3  1  2   731.31349 88.6   742.36594    4  3  2   709.04213 70.2   742.36614
                                          5  3  2   702.00080 85.2   742.36602
  3  1  2   731.64721 70.4   742.69966    5  3  2   702.33539 89.9   742.70061
  3  1  2   732.59677 73.5   743.64922    4  3  2   710.32543 89.8   743.64944
                                          5  3  2   703.28490 89.8   743.65012
  3  1  2   732.73266 86.3   743.78511    4  3  2   710.46049 76.4   743.78450
  3  1  2   732.75455 83.3   743.80700    4  3  2   710.48368 66.9   743.80769
  3  1  2   732.85356 46.4   743.90601    5  3  2   703.53989 82.4   743.90511
  3  1  2   733.42709 78.0   744.47954    4  3  2   711.15476 88.2   744.47877
  3  1  2   733.55846 41.9   744.61091    4  3  2   711.28674 79.5   744.61075
  3  1  2   734.17073 77.6   745.22318    4  3  2   711.89846 56.1   745.22247
  3  1  2   734.95175 85.3   746.00420    4  3  2   712.68056 71.0   746.00457
  3  1  2   735.50393 81.5   746.55638    4  3  2   713.23235 75.6   746.55636
  3  1  2   735.51352 90.0   746.56597    4  3  2   713.24205 74.2   746.56606
  3  1  2   735.54345 79.0   746.59590    5  3  2   706.23029 65.1   746.59551
  3  1  2   735.64860 88.3   746.70105    4  3  2   713.37710 88.1   746.70111
  3  1  2   735.98862 69.4   747.04107    4  3  2   713.71795 72.3   747.04196
                                          5  3  2   706.67522 72.7   747.04044
  3  1  2   736.16759  6.0   747.22004    4  3  2   713.89621 82.7   747.22022
  3  1  2   736.23837 48.6   747.29082    5  3  2   706.92566 82.0   747.29088
  3  1  2   736.33469 74.5   747.38714    4  3  2   714.06287 89.3   747.38688
  3  1  2   737.03473 80.7   748.08718    5  3  2   707.72114 51.2   748.08636
  3  1  2   737.20248 87.5   748.25493    4  3  2   714.93120 87.8   748.25521
  3  1  2   737.42433 85.1   748.47678    4  3  2   715.15345 89.7   748.47746
  3  1  2   737.62159 67.1   748.67404    4  3  2   715.34931 85.0   748.67332
  3  1  2   738.29552 45.9   749.34797    4  3  2   716.02448 47.3   749.34849
  3  1  2   738.31931 87.2   749.37176    4  3  2   716.04839 72.2   749.37240
  3  1  2   738.81064 78.4   749.86309    4  3  2   716.53812 84.4   749.86213
  3  1  2   739.21147 77.7   750.26392    4  3  2   716.94027 79.1   750.26428
  3  1  2   739.39627 89.7   750.44872    4  3  2   717.12499 89.0   750.44900
  3  1  2   739.50373 85.0   750.55618    4  3  2   717.23151 83.9   750.55552
  3  1  2   739.53433 79.1   750.58678    4  3  2   717.26350 80.7   750.58751
  3  1  2   739.58636 89.7   750.63881    4  3  2   717.31448 76.2   750.63849
  3  1  2   739.60146 60.5   750.65391    4  3  2   717.32980 76.7   750.65381
                                          5  3  2   710.28866 89.5   750.65388
  3  1  2   739.61566 86.6   750.66811    5  3  2   710.30359 86.2   750.66881
  3  1  2   739.67567 76.0   750.72812    4  3  2   717.40379 89.1   750.72780
  3  1  2   739.68080 87.9   750.73325    4  3  2   717.40867 80.8   750.73268
  3  1  2   739.75112 20.3   750.80357    4  3  2   717.48045 76.0   750.80446
  3  1  2   739.79560 34.8   750.84805    5  3  2   710.48368 66.9   750.84890
  3  1  2   739.81574 89.0   750.86819    5  3  2   710.50200 75.6   750.86722
  3  1  2   739.83922 76.7   750.89167    4  3  2   717.56743 82.4   750.89144
  3  1  2   739.84446 79.0   750.89691    4  3  2   717.57226 84.6   750.89627
  3  1  2   740.43515 21.0   751.48760    4  3  2   718.16313 84.3   751.48714
  3  1  2   740.47310 85.7   751.52555    4  3  2   718.20209 71.3   751.52610
  3  1  2   740.64024 63.6   751.69269    4  3  2   718.36854 88.6   751.69255
  3  1  2   740.65686 74.8   751.70931    4  3  2   718.38445 88.9   751.70846
  4  3  2   708.95663 81.9   742.28064    5  3  2   701.91559 88.6   742.28081
  4  3  2   709.04213 70.2   742.36614    5  3  2   702.00080 85.2   742.36602
  4  3  2   709.14636 61.1   742.47037    5  3  2   702.10557 72.9   742.47079
  4  3  2   709.34220 77.8   742.66621    5  3  2   702.30150 13.7   742.66672
  4  3  2   710.03032 68.2   743.35433    5  3  2   702.99004 51.5   743.35526
  4  3  2   710.32543 89.8   743.64944    5  3  2   703.28490 89.8   743.65012
  4  3  2   710.34781 78.5   743.67182    5  3  2   703.30580 85.7   743.67102
  4  3  2   711.73818 33.5   745.06219    5  3  2   704.69676 82.5   745.06198
  4  3  2   712.03091 87.9   745.35492    5  3  2   704.98950 89.7   745.35472
  4  3  2   713.11662 89.6   746.44063    5  3  2   706.07617 69.8   746.44139
  4  3  2   714.12869 77.2   747.45270    5  3  2   707.08742 55.9   747.45264
  4  3  2   714.68095 74.4   748.00496    5  3  2   707.64025 87.0   748.00547
  4  3  2   715.03360 87.7   748.35761    5  3  2   707.99325 80.6   748.35847
  4  3  2   715.18135 88.3   748.50536    5  3  2   708.13933 83.7   748.50455
  4  3  2   715.70084 88.9   749.02485    5  3  2   708.65900 87.6   749.02422
  4  3  2   716.06314 77.7   749.38715    5  3  2   709.02209 86.4   749.38731
  4  3  2   716.08306 87.6   749.40707    5  3  2   709.04213 70.2   749.40735
  4  3  2   716.13172 76.1   749.45573    5  3  2   709.09063 76.0   749.45585
  4  3  2   716.39787 86.0   749.72188    5  3  2   709.35669 85.4   749.72191
  4  3  2   716.68010 80.3   750.00411    5  3  2   709.63820 80.0   750.00342
  4  3  2   716.82066 89.8   750.14467    5  3  2   709.77983 81.9   750.14505
  4  3  2   717.32980 76.7   750.65381    5  3  2   710.28866 89.5   750.65388
  4  3  2   717.36580 85.2   750.68981    5  3  2   710.32543 89.8   750.69065
  4  3  2   717.42705 72.4   750.75106    5  3  2   710.38560 89.2   750.75082
  4  3  2   717.54273 82.7   750.86674    5  3  2   710.50200 75.6   750.86722
  4  3  2   717.83180 84.1   751.15581    5  3  2   710.78998 89.2   751.15520
  4  3  2   717.96229 88.8   751.28630    5  3  2   710.92117 89.7   751.28639
  4  3  2   718.24543 77.8   751.56944    5  3  2   711.20401 76.3   751.56923

 Searching   5  2  3 near    753.89272
 No   1:   4  1  3       16.97345  reg   731.919 -   741.919
 No   2:   5  3  3       40.35448  reg   708.538 -   718.538
 No   3:   6  3  3       48.83140  reg   700.061 -   710.061
  4  1  3   732.63651 86.3   749.60996    5  3  3   709.25475 73.4   749.60923
                                          6  3  3   700.77885 77.0   749.61025
  4  1  3   732.73266 86.3   749.70611    5  3  3   709.35116 65.0   749.70564
  4  1  3   732.79546 87.0   749.76891    6  3  3   700.93784 89.8   749.76924
  4  1  3   732.89064 36.9   749.86409    5  3  3   709.50913 67.5   749.86361
                                          6  3  3   701.03347 57.1   749.86487
  4  1  3   733.12596 81.3   750.09941    5  3  3   709.74469 68.4   750.09917
  4  1  3   733.70620 84.6   750.67965    5  3  3   710.32543 89.8   750.67991
                                          6  3  3   701.84751 78.0   750.67891
  4  1  3   734.01782 73.1   750.99127    5  3  3   710.63618 40.6   750.99066
  4  1  3   734.17073 77.6   751.14418    5  3  3   710.78998 89.2   751.14446
  4  1  3   734.31579 83.4   751.28924    6  3  3   702.45731 84.9   751.28871
  4  1  3   734.79427 89.7   751.76772    5  3  3   711.41373 85.0   751.76821
  4  1  3   734.81477 87.5   751.78822    6  3  3   702.95772 31.3   751.78912
  4  1  3   734.88539 89.4   751.85884    6  3  3   703.02779 76.1   751.85919
  4  1  3   735.98862 69.4   752.96207    6  3  3   704.13102 82.7   752.96242
  4  1  3   736.15962 88.7   753.13307    6  3  3   704.30210 37.2   753.13350
  4  1  3   736.22063 89.8   753.19408    6  3  3   704.36208 54.2   753.19348
  4  1  3   736.50366 28.3   753.47711    5  3  3   713.12196 75.6   753.47644
  4  1  3   737.27713 74.1   754.25058    5  3  3   713.89621 82.7   754.25069
  4  1  3   737.85480 63.2   754.82825    5  3  3   714.47280 87.5   754.82728
  4  1  3   738.39965 58.8   755.37310    5  3  3   715.01777 87.7   755.37225
  4  1  3   738.41434 85.8   755.38779    5  3  3   715.03360 87.7   755.38808
  4  1  3   738.48806 63.0   755.46151    5  3  3   715.10651 68.1   755.46099
  4  1  3   738.51001 87.5   755.48346    6  3  3   706.65161 85.6   755.48301
  4  1  3   738.61586 86.2   755.58931    5  3  3   715.23483 83.2   755.58931
  4  1  3   738.62195 60.8   755.59540    5  3  3   715.24075 53.5   755.59523
  4  1  3   738.89728 62.1   755.87073    6  3  3   707.04024 52.6   755.87164
  4  1  3   739.57615 51.5   756.54960    5  3  3   716.19540 82.9   756.54988
  4  1  3   739.58132 78.3   756.55477    5  3  3   716.20101 55.1   756.55549
  4  1  3   739.75691 89.0   756.73036    5  3  3   716.37528 84.2   756.72976
  4  1  3   739.85063 78.6   756.82408    6  3  3   707.99325 80.6   756.82465
  4  1  3   740.10746 70.0   757.08091    5  3  3   716.72733 82.5   757.08181
  4  1  3   740.64024 63.6   757.61369    5  3  3   717.25830 87.7   757.61278
  4  1  3   740.82904 70.2   757.80249    5  3  3   717.44771 70.7   757.80219
  4  1  3   741.27482 89.1   758.24827    5  3  3   717.89331 84.6   758.24779
  4  1  3   741.54393 88.2   758.51738    5  3  3   718.16313 84.3   758.51761
  4  1  3   741.89604 89.3   758.86949    5  3  3   718.51422 81.3   758.86870
  5  3  3   709.00495 84.2   749.35943    6  3  3   700.52833 86.8   749.35973
  5  3  3   709.34220 77.8   749.69668    6  3  3   700.86619 60.7   749.69759
  5  3  3   709.35669 85.4   749.71117    6  3  3   700.87949 70.1   749.71089
  5  3  3   709.53327 87.3   749.88775    6  3  3   701.05681 50.0   749.88821
  5  3  3   710.00060 86.5   750.35508    6  3  3   701.52348 44.6   750.35488
  5  3  3   710.03032 68.2   750.38480    6  3  3   701.55315 63.5   750.38455
  5  3  3   710.32543 89.8   750.67991    6  3  3   701.84751 78.0   750.67891
  5  3  3   710.48368 66.9   750.83816    6  3  3   702.00579 73.7   750.83719
  5  3  3   711.18485 87.5   751.53933    6  3  3   702.70821 78.3   751.53961
  5  3  3   711.41373 85.0   751.76821    6  3  3   702.93735 82.4   751.76875
  5  3  3   712.68056 71.0   753.03504    6  3  3   704.20403 89.7   753.03543
  5  3  3   713.05262 87.1   753.40710    6  3  3   704.57537 69.5   753.40677
  5  3  3   714.02058 77.0   754.37506    6  3  3   705.54266 86.6   754.37406
  5  3  3   714.23546 79.2   754.58994    6  3  3   705.75840 86.5   754.58980
  5  3  3   714.63920 87.9   754.99368    6  3  3   706.16169 74.0   754.99309
  5  3  3   715.03360 87.7   755.38808    6  3  3   706.55745 85.2   755.38885
  5  3  3   715.40353 67.3   755.75801    6  3  3   706.92566 82.0   755.75706
  5  3  3   715.60387 86.9   755.95835    6  3  3   707.12723 32.6   755.95863
  5  3  3   715.72929 60.1   756.08377    6  3  3   707.25157 89.7   756.08297
  5  3  3   715.82638 37.6   756.18086    6  3  3   707.34930 89.6   756.18070
  5  3  3   716.07783 80.1   756.43231    6  3  3   707.60079 34.6   756.43219
  5  3  3   716.41908 88.3   756.77356    6  3  3   707.94292 67.5   756.77432
  5  3  3   716.53299 88.4   756.88747    6  3  3   708.05556 48.6   756.88696
  5  3  3   717.49961 74.1   757.85409    6  3  3   709.02209 86.4   757.85349
  5  3  3   717.56743 82.4   757.92191    6  3  3   709.09063 76.0   757.92203
  5  3  3   717.63965 82.6   757.99413    6  3  3   709.16232 59.5   757.99372
  5  3  3   717.93349 81.6   758.28797    6  3  3   709.45753 72.2   758.28893
  5  3  3   717.98561 89.8   758.34009    6  3  3   709.50913 67.5   758.34053

 Searching   6  2  4 near    762.57011
 No   1:   5  1  4       24.35254  reg   733.218 -   743.218
 No   2:   6  3  4       48.79940  reg   708.771 -   718.771
 No   3:   7  3  4       58.73950  reg   698.831 -   708.831
  5  1  4   734.09921 78.2   758.45175    7  3  4   699.71217 79.8   758.45167
  5  1  4   734.20729 25.4   758.55983    7  3  4   699.82088 59.7   758.56038
  5  1  4   734.31579 83.4   758.66833    6  3  4   709.86923 81.6   758.66863
  5  1  4   734.73613 89.0   759.08867    6  3  4   710.28866 89.5   759.08806
  5  1  4   734.79427 89.7   759.14681    6  3  4   710.34781 78.5   759.14721
  5  1  4   735.18001 72.9   759.53255    7  3  4   700.79349 87.2   759.53299
  5  1  4   735.27675 84.1   759.62929    7  3  4   700.89058 31.9   759.63008
  5  1  4   735.48901 82.3   759.84155    6  3  4   711.04251 62.2   759.84191
  5  1  4   735.54345 79.0   759.89599    6  3  4   711.09685 83.8   759.89625
  5  1  4   735.57908 84.9   759.93162    6  3  4   711.13198 71.4   759.93138
  5  1  4   736.34542 84.9   760.69796    6  3  4   711.89846 56.1   760.69786
  5  1  4   736.50366 28.3   760.85620    7  3  4   702.11714 69.4   760.85664
  5  1  4   736.65016 87.9   761.00270    6  3  4   712.20413 89.9   761.00353
  5  1  4   736.94366 89.1   761.29620    6  3  4   712.49695 89.5   761.29635
  5  1  4   737.32326 77.6   761.67580    6  3  4   712.87626 85.8   761.67566
  5  1  4   738.48806 63.0   762.84060    6  3  4   714.04108 68.5   762.84048
  5  1  4   738.51001 87.5   762.86255    6  3  4   714.06287 89.3   762.86227
  5  1  4   738.62195 60.8   762.97449    6  3  4   714.17527 69.8   762.97467
  5  1  4   739.11658 83.2   763.46912    6  3  4   714.66942 68.3   763.46882
  5  1  4   739.19941 80.4   763.55195    7  3  4   704.81315 71.0   763.55265
  5  1  4   739.52658 86.2   763.87912    6  3  4   715.08042 83.0   763.87982
  5  1  4   739.58636 89.7   763.93890    6  3  4   715.13858 65.2   763.93798
  5  1  4   739.59089 86.1   763.94343    6  3  4   715.14407 87.4   763.94347
  5  1  4   739.61566 86.6   763.96820    6  3  4   715.16907 87.2   763.96847
  5  1  4   739.68080 87.9   764.03334    6  3  4   715.23483 83.2   764.03423
  5  1  4   739.79560 34.8   764.14814    6  3  4   715.34931 85.0   764.14871
  5  1  4   739.85063 78.6   764.20317    6  3  4   715.40353 67.3   764.20293
  5  1  4   739.85960 46.0   764.21214    6  3  4   715.41339 85.3   764.21279
  5  1  4   739.95337 79.3   764.30591    6  3  4   715.50558 79.7   764.30498
  5  1  4   740.00544 87.8   764.35798    7  3  4   705.61887 28.5   764.35837
  5  1  4   740.29323 83.0   764.64577    6  3  4   715.84570 84.9   764.64510
  5  1  4   740.42484 83.0   764.77738    6  3  4   715.97758 87.0   764.77698
  5  1  4   740.44080 88.9   764.79334    6  3  4   715.99467 74.8   764.79407
  5  1  4   740.49556 83.3   764.84810    6  3  4   716.04839 72.2   764.84779
  5  1  4   740.52470 60.7   764.87724    6  3  4   716.07783 80.1   764.87723
  5  1  4   740.54108 74.4   764.89362    6  3  4   716.09414 85.2   764.89354
  5  1  4   740.54770 87.5   764.90024    7  3  4   706.16169 74.0   764.90119
  5  1  4   740.81348 88.5   765.16602    7  3  4   706.42736 79.5   765.16686
  5  1  4   741.17430 79.6   765.52684    6  3  4   716.72733 82.5   765.52673
  5  1  4   741.41702 67.0   765.76956    7  3  4   707.03005 45.0   765.76955
  5  1  4   741.65434 88.5   766.00688    6  3  4   717.20746 77.2   766.00686
  5  1  4   742.08699 87.0   766.43953    6  3  4   717.63965 82.6   766.43905
  5  1  4   742.46341 75.8   766.81595    7  3  4   708.07661 78.3   766.81611
  5  1  4   742.47458 34.4   766.82712    6  3  4   718.02818 82.3   766.82758
  5  1  4   742.63814 87.8   766.99068    6  3  4   718.19147 78.8   766.99087
  5  1  4   743.01551 85.5   767.36805    6  3  4   718.56932 81.8   767.36872
  5  1  4   743.15167  2.0   767.50421    7  3  4   708.76487 79.3   767.50437
  5  1  4   743.20999 89.9   767.56253    6  3  4   718.76302 81.0   767.56242
  6  3  4   709.59674 88.5   758.39614    7  3  4   699.65566 89.7   758.39516
  6  3  4   710.48368 66.9   759.28308    7  3  4   700.54317 66.1   759.28267
  6  3  4   710.91035 89.6   759.70975    7  3  4   700.97101 59.2   759.71051
  6  3  4   711.64334 68.9   760.44274    7  3  4   701.70334 40.4   760.44284
  6  3  4   711.78712 71.3   760.58652    7  3  4   701.84751 78.0   760.58701
  6  3  4   712.92284 83.9   761.72224    7  3  4   702.98371 84.5   761.72321
  6  3  4   713.06387 71.9   761.86327    7  3  4   703.12405 65.0   761.86355
  6  3  4   713.14715 79.4   761.94655    7  3  4   703.20727 76.5   761.94677
  6  3  4   713.22580 78.1   762.02520    7  3  4   703.28490 89.8   762.02440
  6  3  4   713.34181 86.9   762.14121    7  3  4   703.40132 88.1   762.14082
  6  3  4   715.10103 84.0   763.90043    7  3  4   705.16138 88.3   763.90088
  6  3  4   715.48218 81.9   764.28158    7  3  4   705.54266 86.6   764.28216
  6  3  4   715.54805 87.1   764.34745    7  3  4   705.60763 75.4   764.34713
  6  3  4   715.82638 37.6   764.62578    7  3  4   705.88543 89.4   764.62493
  6  3  4   715.92426 81.6   764.72366    7  3  4   705.98361 71.3   764.72311
  6  3  4   716.68788 88.7   765.48728    7  3  4   706.74829 88.7   765.48779
  6  3  4   716.98068 80.7   765.78008    7  3  4   707.04024 52.6   765.77974
  6  3  4   717.19222 53.9   765.99162    7  3  4   707.25157 89.7   765.99107
  6  3  4   717.35093 89.6   766.15033    7  3  4   707.41154 87.9   766.15104
  6  3  4   717.88296 88.0   766.68236    7  3  4   707.94292 67.5   766.68242
  6  3  4   717.93349 81.6   766.73289    7  3  4   707.99325 80.6   766.73275
  6  3  4   718.59865 11.5   767.39805    7  3  4   708.65900 87.6   767.39850

 Searching   7  2  5 near    772.77161
 No   1:   6  1  5       33.17281  reg   734.599 -   744.599
 No   2:   7  3  5       58.66042  reg   709.111 -   719.111
 No   3:   8  3  5       70.10844  reg   697.663 -   707.663
  6  1  5   734.74149 88.6   767.91430    7  3  5   709.25475 73.4   767.91517
  6  1  5   734.84460 83.1   768.01741    7  3  5   709.35669 85.4   768.01711
  6  1  5   734.95175 85.3   768.12456    8  3  5   698.01663 83.5   768.12507
  6  1  5   735.03301 81.6   768.20582    7  3  5   709.54444 77.8   768.20486
  6  1  5   735.48901 82.3   768.66182    7  3  5   710.00060 86.5   768.66102
  6  1  5   735.98862 69.4   769.16143    7  3  5   710.50200 75.6   769.16242
  6  1  5   736.21504 26.1   769.38785    7  3  5   710.72684 87.6   769.38726
  6  1  5   736.35105 18.7   769.52386    7  3  5   710.86312 88.6   769.52354
  6  1  5   736.72629 88.8   769.89910    8  3  5   699.79047 75.6   769.89891
  6  1  5   737.04447 88.5   770.21728    8  3  5   700.10953 89.4   770.21797
  6  1  5   737.20248 87.5   770.37529    8  3  5   700.26767 82.8   770.37611
  6  1  5   737.71376 76.1   770.88657    8  3  5   700.77885 77.0   770.88729
  6  1  5   738.30747 87.2   771.48028    8  3  5   701.37277 69.0   771.48121
  6  1  5   738.41434 85.8   771.58715    8  3  5   701.47946 56.9   771.58790
  6  1  5   738.48806 63.0   771.66087    8  3  5   701.55315 63.5   771.66159
  6  1  5   738.63316 71.3   771.80597    8  3  5   701.69702 77.2   771.80546
  6  1  5   738.81064 78.4   771.98345    7  3  5   713.32360 88.7   771.98402
  6  1  5   739.04128 77.9   772.21409    8  3  5   702.10557 72.9   772.21401
  6  1  5   739.58132 78.3   772.75413    8  3  5   702.64648 86.1   772.75492
  6  1  5   739.61566 86.6   772.78847    7  3  5   714.12869 77.2   772.78911
  6  1  5   739.77687 73.0   772.94968    8  3  5   702.84224 85.2   772.95068
  6  1  5   739.89380 87.4   773.06661    8  3  5   702.95772 31.3   773.06616
  6  1  5   740.31034 35.6   773.48315    7  3  5   714.82232 81.2   773.48274
  6  1  5   740.58250 40.7   773.75531    7  3  5   715.09418 80.1   773.75460
  6  1  5   740.64024 63.6   773.81305    7  3  5   715.15345 89.7   773.81387
  6  1  5   740.65066 89.2   773.82347    7  3  5   715.16375 66.7   773.82417
  6  1  5   740.65686 74.8   773.82967    7  3  5   715.16907 87.2   773.82949
  6  1  5   740.72765 87.9   773.90046    7  3  5   715.24075 53.5   773.90117
  6  1  5   740.92057 87.9   774.09338    7  3  5   715.43359 82.0   774.09401
  6  1  5   741.17430 79.6   774.34711    7  3  5   715.68605 73.3   774.34647
  6  1  5   741.24070 88.0   774.41351    7  3  5   715.75283 84.1   774.41325
  6  1  5   741.41135 87.2   774.58416    7  3  5   715.92426 81.6   774.58468
                                          8  3  5   704.47515 88.1   774.58359
  6  1  5   741.54393 88.2   774.71674    7  3  5   716.05723 83.9   774.71765
  6  1  5   741.61843 70.6   774.79124    7  3  5   716.13172 76.1   774.79214
  6  1  5   741.63626 85.5   774.80907    7  3  5   716.14889 79.4   774.80931
  6  1  5   742.17996 87.6   775.35277    7  3  5   716.69304 89.9   775.35346
  6  1  5   742.63814 87.8   775.81095    7  3  5   717.15072 85.4   775.81114
  6  1  5   743.01551 85.5   776.18832    7  3  5   717.52699 83.0   776.18741
  6  1  5   743.05571 90.0   776.22852    7  3  5   717.56743 82.4   776.22785
  6  1  5   743.47396 89.3   776.64677    7  3  5   717.98561 89.8   776.64603
  6  1  5   743.54478 72.9   776.71759    8  3  5   706.60980 71.6   776.71824
  6  1  5   743.77796 27.2   776.95077    7  3  5   718.29096 84.1   776.95138
  6  1  5   743.78406 78.3   776.95687    8  3  5   706.84911 89.1   776.95755
  6  1  5   743.86092 60.3   777.03373    8  3  5   706.92566 82.0   777.03410
  6  1  5   744.05212 89.3   777.22493    8  3  5   707.11631 77.7   777.22475
  6  1  5   744.32510 88.8   777.49791    7  3  5   718.83781 88.6   777.49823
  6  1  5   744.52589 39.9   777.69870    7  3  5   719.03779 85.6   777.69821
  6  1  5   744.53739 70.4   777.71020    8  3  5   707.60079 34.6   777.70923
  7  3  5   709.81288 88.8   768.47330    8  3  5   698.36490 81.6   768.47334
  7  3  5   709.81753 84.4   768.47795    8  3  5   698.37009 66.7   768.47853
  7  3  5   709.87843 73.8   768.53885    8  3  5   698.43040 68.3   768.53884
  7  3  5   710.31974 36.2   768.98016    8  3  5   698.87257 47.8   768.98101
  7  3  5   712.31407 89.3   770.97449    8  3  5   700.86619 60.7   770.97463
  7  3  5   713.18197 81.5   771.84239    8  3  5   701.73332 83.2   771.84176
  7  3  5   713.44949 58.9   772.10991    8  3  5   702.00080 85.2   772.10924
  7  3  5   713.45459 77.1   772.11501    8  3  5   702.00579 73.7   772.11423
  7  3  5   713.75530 67.8   772.41572    8  3  5   702.30737 88.0   772.41581
  7  3  5   714.38537 78.4   773.04579    8  3  5   702.93735 82.4   773.04579
  7  3  5   714.57247 70.0   773.23289    8  3  5   703.12405 65.0   773.23249
  7  3  5   714.73224 82.5   773.39266    8  3  5   703.28490 89.8   773.39334
  7  3  5   715.51474 75.5   774.17516    8  3  5   704.06615 83.9   774.17459
  7  3  5   715.57921 81.2   774.23963    8  3  5   704.13102 82.7   774.23946
  7  3  5   715.59478 77.5   774.25520    8  3  5   704.14613 88.0   774.25457
  7  3  5   715.75978 78.7   774.42020    8  3  5   704.31215 88.3   774.42059
  7  3  5   715.79422 75.8   774.45464    8  3  5   704.34642 46.9   774.45486
  7  3  5   716.31820 86.4   774.97862    8  3  5   704.87046 72.9   774.97890
  7  3  5   716.99934 71.4   775.65976    8  3  5   705.55180 85.8   775.66024
  7  3  5   717.25830 87.7   775.91872    8  3  5   705.81025 83.6   775.91869
  7  3  5   717.31448 76.2   775.97490    8  3  5   705.86595 81.4   775.97439
  7  3  5   717.44771 70.7   776.10813    8  3  5   706.00002 86.7   776.10846
  7  3  5   717.91176 66.0   776.57218    8  3  5   706.46422 78.9   776.57266
  7  3  5   718.00468 15.8   776.66510    8  3  5   706.55745 85.2   776.66589
  7  3  5   718.53591 80.4   777.19633    8  3  5   707.08742 55.9   777.19586
  7  3  5   718.67499 11.8   777.33541    8  3  5   707.22645 71.2   777.33489
  7  3  5   718.76884 89.6   777.42926    8  3  5   707.32131 87.2   777.42975
  7  3  5   718.86031 78.8   777.52073    8  3  5   707.41154 87.9   777.51998
