Range    : 5.000
Accuracy : 0.001
Control file  : C2HD3gr   
Spectrum file : w         

 Searching   1  1  1 near    727.45881
 No   1:   1  0  1        1.39995  reg   721.059 -   731.059
 No   2:   2  2  1       12.77805  reg   709.681 -   719.681
  1  0  1   721.15706 81.7   722.55701    2  2  1   709.77983 81.9   722.55788
  1  0  1   721.19611 62.4   722.59606    2  2  1   709.81753 84.4   722.59558
  1  0  1   721.21498 85.1   722.61493    2  2  1   709.83687 73.1   722.61492
  1  0  1   721.24751 63.3   722.64746    2  2  1   709.86923 81.6   722.64728
  1  0  1   721.25653 88.8   722.65648    2  2  1   709.87843 73.8   722.65648
  1  0  1   721.54037 88.6   722.94032    2  2  1   710.16247 78.2   722.94052
  1  0  1   721.66764 85.7   723.06759    2  2  1   710.28866 89.5   723.06671
  1  0  1   721.68857 87.9   723.08852    2  2  1   710.31099 87.1   723.08904
  1  0  1   721.87976 86.5   723.27971    2  2  1   710.50200 75.6   723.28005
  1  0  1   722.32607 83.1   723.72602    2  2  1   710.94828 82.9   723.72633
  1  0  1   722.52727 85.1   723.92722    2  2  1   711.14917 21.0   723.92722
  1  0  1   722.53259 79.6   723.93254    2  2  1   711.15476 88.2   723.93281
  1  0  1   722.55789 86.7   723.95784    2  2  1   711.17926 46.9   723.95731
  1  0  1   722.56307 80.8   723.96302    2  2  1   711.18485 87.5   723.96290
  1  0  1   722.79136 76.6   724.19131    2  2  1   711.41373 85.0   724.19178
  1  0  1   722.94647 80.6   724.34642    2  2  1   711.56796 87.0   724.34601
  1  0  1   723.02125 84.1   724.42120    2  2  1   711.64334 68.9   724.42139
  1  0  1   723.11580 85.0   724.51575    2  2  1   711.73818 33.5   724.51623
  1  0  1   723.27128 87.4   724.67123    2  2  1   711.89228 52.1   724.67033
  1  0  1   723.27661 87.2   724.67656    2  2  1   711.89846 56.1   724.67651
  1  0  1   723.58201 45.8   724.98196    2  2  1   712.20413 89.9   724.98218
  1  0  1   723.72936 89.7   725.12931    2  2  1   712.35160 84.2   725.12965
  1  0  1   724.18413 88.1   725.58408    2  2  1   712.80588 88.9   725.58393
  1  0  1   724.49503 83.5   725.89498    2  2  1   713.11662 89.6   725.89467
  1  0  1   724.53098 24.7   725.93093    2  2  1   713.15372 84.2   725.93177
  1  0  1   724.56107 29.3   725.96102    2  2  1   713.18197 81.5   725.96002
  1  0  1   724.75559 39.7   726.15554    2  2  1   713.37710 88.1   726.15515
  1  0  1   724.82851 17.1   726.22846    2  2  1   713.44949 58.9   726.22754
  1  0  1   724.88765 25.0   726.28760    2  2  1   713.50998 51.8   726.28803
  1  0  1   725.10943 85.8   726.50938    2  2  1   713.73136 80.2   726.50941
  1  0  1   725.43020 31.4   726.83015    2  2  1   714.05126 87.9   726.82931
  1  0  1   725.43451 40.3   726.83446    2  2  1   714.05701 31.3   726.83506
  1  0  1   726.15216 11.7   727.55211    2  2  1   714.77464 89.3   727.55269
  1  0  1   726.16794 79.2   727.56789    2  2  1   714.78958 23.5   727.56763
  1  0  1   726.18236 78.6   727.58231    2  2  1   714.80385 76.6   727.58190
  1  0  1   726.25580 37.3   727.65575    2  2  1   714.87829 87.2   727.65634
  1  0  1   726.58208 54.3   727.98203    2  2  1   715.20363 84.5   727.98168
  1  0  1   726.58905 60.5   727.98900    2  2  1   715.21001 70.5   727.98806
  1  0  1   726.84436 88.1   728.24431    2  2  1   715.46675 69.8   728.24480
  1  0  1   726.95689 48.3   728.35684    2  2  1   715.57921 81.2   728.35726
  1  0  1   726.97214 75.3   728.37209    2  2  1   715.59478 77.5   728.37283
  1  0  1   727.17319 72.1   728.57314    2  2  1   715.79422 75.8   728.57227
  1  0  1   727.21096 89.9   728.61091    2  2  1   715.83213 83.9   728.61018
  1  0  1   727.32133 87.5   728.72128    2  2  1   715.94256 78.8   728.72061
  1  0  1   727.40261 77.8   728.80256    2  2  1   716.02448 47.3   728.80253
  1  0  1   727.57268 87.0   728.97263    2  2  1   716.19540 82.9   728.97345
  1  0  1   727.57912 70.4   728.97907    2  2  1   716.20101 55.1   728.97906
  1  0  1   727.60946 80.8   729.00941    2  2  1   716.23091 84.9   729.00896
  1  0  1   727.75797 83.2   729.15792    2  2  1   716.37928 88.5   729.15733
  1  0  1   727.86442 86.4   729.26437    2  2  1   716.48647 85.9   729.26452
  1  0  1   728.12427 88.2   729.52422    2  2  1   716.74568 83.2   729.52373
  1  0  1   728.19906 58.2   729.59901    2  2  1   716.82066 89.8   729.59871
  1  0  1   728.20514 87.1   729.60509    2  2  1   716.82637 80.8   729.60442
  1  0  1   728.28616 80.4   729.68611    2  2  1   716.90905 85.7   729.68710
  1  0  1   728.76274 35.0   730.16269    2  2  1   717.38436 89.4   730.16241
  1  0  1   728.78243 89.4   730.18238    2  2  1   717.40379 89.1   730.18184
  1  0  1   728.78628 76.1   730.18623    2  2  1   717.40867 80.8   730.18672
  1  0  1   729.34550 81.2   730.74545    2  2  1   717.96820 79.5   730.74625
  1  0  1   729.54138 73.6   730.94133    2  2  1   718.16313 84.3   730.94118
  1  0  1   729.98836 89.6   731.38831    2  2  1   718.61017 69.5   731.38822
  1  0  1   730.08480 86.4   731.48475    2  2  1   718.70705 74.1   731.48510
  1  0  1   730.21579 82.3   731.61574    2  2  1   718.83781 88.6   731.61586
  1  0  1   730.46252 82.0   731.86247    2  2  1   719.08381 84.7   731.86186
  1  0  1   730.57146 65.6   731.97141    2  2  1   719.19360 89.2   731.97165
  1  0  1   730.73574 89.7   732.13569    2  2  1   719.35862  5.0   732.13667
  1  0  1   730.76333 84.5   732.16328    2  2  1   719.38443 88.8   732.16248
  1  0  1   731.00498 89.8   732.40493    2  2  1   719.62644 77.4   732.40449

 Searching   2  1  2 near    730.08707
 No   1:   2  0  2        4.18956  reg   720.898 -   730.898
 No   2:   3  2  2       16.97774  reg   708.109 -   718.109
  2  0  2   720.92832 89.7   725.11788    3  2  2   708.13933 83.7   725.11707
  2  0  2   721.87976 86.5   726.06932    3  2  2   709.09063 76.0   726.06837
  2  0  2   721.95005 72.1   726.13961    3  2  2   709.16232 59.5   726.14006
  2  0  2   722.35481 86.7   726.54437    3  2  2   709.56589 81.4   726.54363
  2  0  2   722.53259 79.6   726.72215    3  2  2   709.74469 68.4   726.72243
  2  0  2   722.61114 74.9   726.80070    3  2  2   709.82309 59.9   726.80083
  2  0  2   722.62596 78.3   726.81552    3  2  2   709.83687 73.1   726.81461
  2  0  2   722.65718 76.5   726.84674    3  2  2   709.86923 81.6   726.84697
  2  0  2   723.09262 34.2   727.28218    3  2  2   710.30359 86.2   727.28133
  2  0  2   723.10724 85.7   727.29680    3  2  2   710.31974 36.2   727.29748
  2  0  2   723.16835 31.9   727.35791    3  2  2   710.38058 88.6   727.35832
  2  0  2   723.27128 87.4   727.46084    3  2  2   710.48368 66.9   727.46142
  2  0  2   723.55253 85.7   727.74209    3  2  2   710.76342 77.2   727.74116
  2  0  2   723.83152 85.1   728.02108    3  2  2   711.04251 62.2   728.02025
  2  0  2   723.91987 88.4   728.10943    3  2  2   711.13198 71.4   728.10972
  2  0  2   724.05572 71.2   728.24528    3  2  2   711.26672 87.6   728.24446
  2  0  2   724.12858 16.3   728.31814    3  2  2   711.34087 77.7   728.31861
  2  0  2   724.67994 87.5   728.86950    3  2  2   711.89228 52.1   728.87002
  2  0  2   724.84861 90.0   729.03817    3  2  2   712.06027 89.3   729.03801
  2  0  2   725.14559 89.2   729.33515    3  2  2   712.35713 81.4   729.33487
  2  0  2   725.27920 81.8   729.46876    3  2  2   712.49126 51.9   729.46900
  2  0  2   725.66479 47.1   729.85435    3  2  2   712.87626 85.8   729.85400
  2  0  2   725.93545 38.2   730.12501    3  2  2   713.14715 79.4   730.12489
  2  0  2   725.97014 57.6   730.15970    3  2  2   713.18197 81.5   730.15971
  2  0  2   726.01400 56.7   730.20356    3  2  2   713.22580 78.1   730.20354
  2  0  2   726.01978 88.1   730.20934    3  2  2   713.23235 75.6   730.21009
  2  0  2   726.02993 66.3   730.21949    3  2  2   713.24205 74.2   730.21979
  2  0  2   726.51960 69.4   730.70916    3  2  2   713.73136 80.2   730.70910
  2  0  2   726.63223 51.5   730.82179    3  2  2   713.84504 63.7   730.82278
  2  0  2   726.73986 89.4   730.92942    3  2  2   713.95127 84.0   730.92901
  2  0  2   726.84436 88.1   731.03392    3  2  2   714.05701 31.3   731.03475
  2  0  2   727.17319 72.1   731.36275    3  2  2   714.38537 78.4   731.36311
  2  0  2   727.24949 88.4   731.43905    3  2  2   714.46198 84.0   731.43972
  2  0  2   727.40261 77.8   731.59217    3  2  2   714.61490 85.0   731.59264
  2  0  2   727.52135 89.1   731.71091    3  2  2   714.73224 82.5   731.70998
  2  0  2   727.96890 86.5   732.15846    3  2  2   715.18135 88.3   732.15909
  2  0  2   727.99259 88.0   732.18215    3  2  2   715.20363 84.5   732.18137
  2  0  2   727.99816 56.4   732.18772    3  2  2   715.21001 70.5   732.18775
  2  0  2   728.15307 73.4   732.34263    3  2  2   715.36436 63.5   732.34210
  2  0  2   728.26079 89.6   732.45035    3  2  2   715.47217 86.7   732.44991
  2  0  2   728.27023 87.8   732.45979    3  2  2   715.48218 81.9   732.45992
  2  0  2   728.51773 87.4   732.70729    3  2  2   715.72929 60.1   732.70703
  2  0  2   728.62514 87.0   732.81470    3  2  2   715.83766 86.3   732.81540
  2  0  2   728.78243 89.4   732.97199    3  2  2   715.99467 74.8   732.97241
  2  0  2   729.02836 89.6   733.21792    3  2  2   716.23959 81.2   733.21733
  2  0  2   729.10680 86.6   733.29636    3  2  2   716.31820 86.4   733.29594
  2  0  2   729.50636 87.5   733.69592    3  2  2   716.71785 78.7   733.69559
  2  0  2   729.56067 86.4   733.75023    3  2  2   716.77168 77.9   733.74942
  2  0  2   730.08480 86.4   734.27436    3  2  2   717.29597 72.7   734.27371
  2  0  2   730.21579 82.3   734.40535    3  2  2   717.42705 72.4   734.40479
  2  0  2   730.81609 81.0   735.00565    3  2  2   718.02818 82.3   735.00592

 Searching   3  1  3 near    734.02318
 No   1:   3  0  3        8.34844  reg   720.675 -   730.675
 No   2:   4  2  3       22.56924  reg   706.454 -   716.454
  3  0  3   721.07061 59.6   729.41905    4  2  3   706.84911 89.1   729.41835
  3  0  3   721.30869 77.9   729.65713    4  2  3   707.08742 55.9   729.65666
  3  0  3   721.81659 58.3   730.16503    4  2  3   707.59520 87.4   730.16444
  3  0  3   723.38331 64.1   731.73175    4  2  3   709.16232 59.5   731.73156
  3  0  3   723.47601 83.2   731.82445    4  2  3   709.25475 73.4   731.82399
  3  0  3   723.72936 89.7   732.07780    4  2  3   709.50913 67.5   732.07837
  3  0  3   724.50895 76.5   732.85739    4  2  3   710.28866 89.5   732.85790
  3  0  3   724.52401 31.2   732.87245    4  2  3   710.30359 86.2   732.87283
  3  0  3   724.53098 24.7   732.87942    4  2  3   710.31099 87.1   732.88023
  3  0  3   724.54597 86.6   732.89441    4  2  3   710.32543 89.8   732.89467
  3  0  3   724.60153 28.4   732.94997    4  2  3   710.38058 88.6   732.94982
  3  0  3   724.60723 21.1   732.95567    4  2  3   710.38560 89.2   732.95484
  3  0  3   724.70423 23.0   733.05267    4  2  3   710.48368 66.9   733.05292
  3  0  3   725.01174 34.5   733.36018    4  2  3   710.78998 89.2   733.35922
  3  0  3   725.26409 83.5   733.61253    4  2  3   711.04251 62.2   733.61175
  3  0  3   725.30462 34.4   733.65306    4  2  3   711.08439 88.9   733.65363
  3  0  3   725.36979 89.7   733.71823    4  2  3   711.14917 21.0   733.71841
  3  0  3   725.41415 87.6   733.76259    4  2  3   711.19350 87.8   733.76274
  3  0  3   725.95820 66.0   734.30664    4  2  3   711.73818 33.5   734.30742
  3  0  3   726.11352 90.0   734.46196    4  2  3   711.89228 52.1   734.46152
  3  0  3   726.28030 85.7   734.62874    4  2  3   712.06027 89.3   734.62951
  3  0  3   726.81548 31.9   735.16392    4  2  3   712.59523 78.5   735.16447
  3  0  3   727.40261 77.8   735.75105    4  2  3   713.18197 81.5   735.75121
  3  0  3   727.45385 84.7   735.80229    4  2  3   713.23235 75.6   735.80159
  3  0  3   727.52978 86.9   735.87822    4  2  3   713.30901 73.5   735.87825
  3  0  3   727.54450 84.8   735.89294    4  2  3   713.32360 88.7   735.89284
  3  0  3   727.66972 84.6   736.01816    4  2  3   713.44949 58.9   736.01873
  3  0  3   727.80058 88.8   736.14902    4  2  3   713.57931 89.5   736.14855
  3  0  3   728.39516 88.1   736.74360    4  2  3   714.17527 69.8   736.74451
  3  0  3   728.75708 89.8   737.10552    4  2  3   714.53639 82.7   737.10563
  3  0  3   728.76274 35.0   737.11118    4  2  3   714.54262 57.3   737.11186
  3  0  3   729.42517 84.9   737.77361    4  2  3   715.20363 84.5   737.77287
  3  0  3   729.43041 81.1   737.77885    4  2  3   715.21001 70.5   737.77925
  3  0  3   729.46168 81.2   737.81012    4  2  3   715.24075 53.5   737.80999
  3  0  3   729.58495 85.5   737.93339    4  2  3   715.36436 63.5   737.93360
  3  0  3   729.91702 86.1   738.26546    4  2  3   715.69557 84.0   738.26481
  3  0  3   730.21579 82.3   738.56423    4  2  3   715.99467 74.8   738.56391
  3  0  3   730.27788 83.7   738.62632    4  2  3   716.05723 83.9   738.62647
  3  0  3   730.61775 82.6   738.96619    4  2  3   716.39787 86.0   738.96711

 Searching   4  1  4 near    739.26012
 No   1:   4  0  4       13.84736  reg   720.413 -   730.413
 No   2:   5  2  4       29.54562  reg   704.714 -   714.714
  4  0  4   720.79363  3.2   734.64099    5  2  4   705.09460 69.3   734.64022
  4  0  4   721.18688 89.6   735.03424    5  2  4   705.48790 88.8   735.03352
  4  0  4   721.47579 86.3   735.32315    5  2  4   705.77805 78.4   735.32367
  4  0  4   722.01538 67.4   735.86274    5  2  4   706.31692 80.7   735.86254
  4  0  4   722.03384 47.6   735.88120    5  2  4   706.33468 89.7   735.88030
  4  0  4   723.04657 86.9   736.89393    5  2  4   707.34930 89.6   736.89492
  4  0  4   723.11067 86.2   736.95803    5  2  4   707.41154 87.9   736.95716
  4  0  4   723.28255 60.6   737.12991    5  2  4   707.58440 33.7   737.13002
  4  0  4   723.29359 52.5   737.14095    5  2  4   707.59520 87.4   737.14082
  4  0  4   723.33841 48.4   737.18577    5  2  4   707.64025 87.0   737.18587
  4  0  4   724.75559 39.7   738.60295    5  2  4   709.05797 89.3   738.60359
  4  0  4   725.26409 83.5   739.11145    5  2  4   709.56589 81.4   739.11151
  4  0  4   725.57722 59.6   739.42458    5  2  4   709.87843 73.8   739.42405
  4  0  4   725.86097 65.0   739.70833    5  2  4   710.16247 78.2   739.70809
  4  0  4   726.04560 61.1   739.89296    5  2  4   710.34781 78.5   739.89343
  4  0  4   726.06900 57.0   739.91636    5  2  4   710.37086 83.8   739.91648
  4  0  4   726.08342 34.5   739.93078    5  2  4   710.38560 89.2   739.93122
  4  0  4   726.15819 89.7   740.00555    5  2  4   710.46049 76.4   740.00611
  4  0  4   726.18236 78.6   740.02972    5  2  4   710.48368 66.9   740.02930
  4  0  4   726.56066 84.6   740.40802    5  2  4   710.86312 88.6   740.40874
  4  0  4   726.73986 89.4   740.58722    5  2  4   711.04251 62.2   740.58813
  4  0  4   726.79442 73.5   740.64178    5  2  4   711.09685 83.8   740.64247
  4  0  4   727.11298 46.5   740.96034    5  2  4   711.41373 85.0   740.95935
  4  0  4   727.30462 76.1   741.15198    5  2  4   711.60585 82.3   741.15147
  4  0  4   727.61965 45.1   741.46701    5  2  4   711.92144 88.0   741.46706
  4  0  4   727.75797 83.2   741.60532    5  2  4   712.06027 89.3   741.60589
  4  0  4   728.05531 61.6   741.90267    5  2  4   712.35713 81.4   741.90275
  4  0  4   728.74267 82.8   742.59003    5  2  4   713.04524 67.9   742.59086
  4  0  4   728.76274 35.0   742.61010    5  2  4   713.06387 71.9   742.60949
  4  0  4   728.88026 65.3   742.72762    5  2  4   713.18197 81.5   742.72759
  4  0  4   729.42517 84.9   743.27253    5  2  4   713.72700 76.8   743.27262
  4  0  4   729.43041 81.1   743.27777    5  2  4   713.73136 80.2   743.27698
  4  0  4   730.22496 79.0   744.07232    5  2  4   714.52642 84.5   744.07204
  4  0  4   730.24071 81.9   744.08807    5  2  4   714.54262 57.3   744.08824
  4  0  4   730.31283 78.3   744.16019    5  2  4   714.61490 85.0   744.16052

 Searching   5  1  5 near    745.78939
 No   1:   5  0  5       20.65134  reg   720.138 -   730.138
 No   2:   6  2  5       37.89832  reg   702.891 -   712.891
  5  0  5   720.37068 87.6   741.02202    6  2  5   703.12405 65.0   741.02237
  5  0  5   720.82218 89.5   741.47352    6  2  5   703.57479 49.4   741.47311
  5  0  5   721.19611 62.4   741.84745    6  2  5   703.94900 88.1   741.84732
  5  0  5   721.46077 68.9   742.11211    6  2  5   704.21341 89.3   742.11173
  5  0  5   721.46600 82.6   742.11734    6  2  5   704.21905 14.7   742.11737
  5  0  5   721.47024 64.7   742.12158    6  2  5   704.22423 85.0   742.12255
  5  0  5   721.55532 61.6   742.20666    6  2  5   704.30769 86.1   742.20601
  5  0  5   721.81659 58.3   742.46793    6  2  5   704.57002 38.9   742.46834
  5  0  5   722.34093 74.7   742.99227    6  2  5   705.09460 69.3   742.99292
  5  0  5   722.62596 78.3   743.27730    6  2  5   705.37961 89.3   743.27793
  5  0  5   723.58201 45.8   744.23335    6  2  5   706.33468 89.7   744.23300
  5  0  5   723.89768 79.6   744.54902    6  2  5   706.65161 85.6   744.54993
  5  0  5   724.18413 88.1   744.83547    6  2  5   706.93785 74.9   744.83617
  5  0  5   724.50895 76.5   745.16029    6  2  5   707.26225 72.8   745.16057
  5  0  5   724.84861 90.0   745.49995    6  2  5   707.60079 34.6   745.49911
  5  0  5   724.88765 25.0   745.53899    6  2  5   707.64025 87.0   745.53857
  5  0  5   724.94086 86.0   745.59220    6  2  5   707.69303 88.1   745.59135
  5  0  5   725.17187 88.6   745.82321    6  2  5   707.92422 72.6   745.82254
  5  0  5   725.78040 44.1   746.43174    6  2  5   708.53413 88.4   746.43245
  5  0  5   725.86097 65.0   746.51231    6  2  5   708.61393 80.5   746.51225
  5  0  5   725.90635 86.3   746.55769    6  2  5   708.65900 87.6   746.55732
  5  0  5   726.28030 85.7   746.93164    6  2  5   709.03264 89.6   746.93096
  5  0  5   726.58905 60.5   747.24039    6  2  5   709.34220 77.8   747.24052
  5  0  5   726.60350 88.6   747.25484    6  2  5   709.35669 85.4   747.25501
  5  0  5   726.84436 88.1   747.49570    6  2  5   709.59674 88.5   747.49506
  5  0  5   726.92005 85.1   747.57139    6  2  5   709.67321 82.5   747.57153
  5  0  5   727.57268 87.0   748.22402    6  2  5   710.32543 89.8   748.22375
  5  0  5   727.63217 88.5   748.28351    6  2  5   710.38560 89.2   748.28392
  5  0  5   727.84393 83.6   748.49527    6  2  5   710.59687 74.7   748.49519
  5  0  5   728.39516 88.1   749.04650    6  2  5   711.14917 21.0   749.04749
  5  0  5   728.99197 87.7   749.64331    6  2  5   711.74472 49.7   749.64304
  5  0  5   729.56067 86.4   750.21201    6  2  5   712.31407 89.3   750.21239
  5  0  5   729.59897 89.6   750.25031    6  2  5   712.35160 84.2   750.24992

 Searching   6  1  6 near    753.60161
 No   1:   6  0  6       28.72516  reg   719.876 -   729.876
 No   2:   7  2  6       47.61722  reg   700.984 -   710.984
  6  0  6   719.94961  7.2   748.67477    7  2  6   701.05681 50.0   748.67403
  6  0  6   719.99891 66.8   748.72407    7  2  6   701.10647 67.5   748.72369
  6  0  6   720.04421  1.3   748.76937    7  2  6   701.15287 75.5   748.77009
  6  0  6   720.37068 87.6   749.09584    7  2  6   701.47946 56.9   749.09668
  6  0  6   720.41488 40.3   749.14004    7  2  6   701.52348 44.6   749.14070
  6  0  6   720.44604 86.9   749.17120    7  2  6   701.55315 63.5   749.17037
  6  0  6   720.82773 59.3   749.55289    7  2  6   701.93478 86.8   749.55200
  6  0  6   721.18688 89.6   749.91204    7  2  6   702.29581 77.2   749.91303
  6  0  6   721.25233 86.4   749.97749    7  2  6   702.35963 75.5   749.97685
  6  0  6   721.85001 85.5   750.57517    7  2  6   702.95772 31.3   750.57494
  6  0  6   722.01538 67.4   750.74054    7  2  6   703.12405 65.0   750.74127
  6  0  6   722.19725 72.4   750.92241    7  2  6   703.30580 85.7   750.92302
  6  0  6   722.72434 60.7   751.44950    7  2  6   703.83301 66.7   751.45023
  6  0  6   723.08552 60.8   751.81068    7  2  6   704.19377 46.3   751.81099
  6  0  6   723.10036 75.8   751.82552    7  2  6   704.20891 46.0   751.82613
  6  0  6   723.11067 86.2   751.83583    7  2  6   704.21905 14.7   751.83627
  6  0  6   723.11580 85.0   751.84096    7  2  6   704.22423 85.0   751.84145
  6  0  6   723.20802 70.8   751.93318    7  2  6   704.31682 84.1   751.93404
  6  0  6   723.23782 81.9   751.96298    7  2  6   704.34642 46.9   751.96364
  6  0  6   723.38984 86.9   752.11500    7  2  6   704.49812 52.2   752.11534
  6  0  6   723.70610 76.8   752.43126    7  2  6   704.81315 71.0   752.43037
  6  0  6   724.44435 81.2   753.16951    7  2  6   705.55180 85.8   753.16902
  6  0  6   724.50439 88.8   753.22955    7  2  6   705.61294 85.3   753.23016
  6  0  6   724.66968 72.0   753.39484    7  2  6   705.77805 78.4   753.39527
  6  0  6   725.05316 74.6   753.77832    7  2  6   706.16169 74.0   753.77891
  6  0  6   725.24448 34.7   753.96964    7  2  6   706.35301 84.3   753.97023
  6  0  6   725.35681 89.2   754.08197    7  2  6   706.46422 78.9   754.08144
  6  0  6   726.01978 88.1   754.74494    7  2  6   707.12723 32.6   754.74445
  6  0  6   726.38572 60.7   755.11088    7  2  6   707.49391 64.9   755.11113
  6  0  6   726.81548 31.9   755.54064    7  2  6   707.92422 72.6   755.54144
  6  0  6   726.94680 65.8   755.67196    7  2  6   708.05556 48.6   755.67278
  6  0  6   727.98263 85.0   756.70779    7  2  6   709.09063 76.0   756.70785
  6  0  6   728.05531 61.6   756.78047    7  2  6   709.16232 59.5   756.77954
  6  0  6   728.70982 65.4   757.43498    7  2  6   709.81753 84.4   757.43475
  6  0  6   728.71601 83.3   757.44117    7  2  6   709.82309 59.9   757.44031
  6  0  6   729.24029 83.6   757.96545    7  2  6   710.34781 78.5   757.96503
  6  0  6   729.37548 89.7   758.10064    7  2  6   710.48368 66.9   758.10090
  6  0  6   729.39359 32.0   758.11875    7  2  6   710.50200 75.6   758.11922
