Range    : 5.000
Accuracy : 0.001
Control file  : C2HD3gr   
Spectrum file : w         

 Searching   0  0  0 near    724.00000
 No   1:   1  1  0        3.63042  reg   715.370 -   725.370

 Searching   1  0  1 near    725.39996
 No   1:   1  1  1        3.45881  reg   716.941 -   726.941
 No   2:   2  1  1        6.60191  reg   713.798 -   723.798
  1  1  1   717.16450 76.0   720.62331    2  1  1   714.02058 77.0   720.62249
  1  1  1   717.91787 83.1   721.37668    2  1  1   714.77464 89.3   721.37655
  1  1  1   717.93349 81.6   721.39230    2  1  1   714.78958 23.5   721.39149
  1  1  1   718.22299 84.9   721.68180    2  1  1   715.08042 83.0   721.68233
  1  1  1   718.36219 84.4   721.82100    2  1  1   715.21941 55.9   721.82132
  1  1  1   718.38445 88.9   721.84326    2  1  1   715.24075 53.5   721.84266
  1  1  1   718.42203 80.7   721.88084    2  1  1   715.27814 85.5   721.88005
  1  1  1   718.52987 80.3   721.98868    2  1  1   715.38753 87.2   721.98944
  1  1  1   718.61017 69.5   722.06898    2  1  1   715.46675 69.8   722.06866
  1  1  1   718.66924 84.4   722.12805    2  1  1   715.52705 89.9   722.12896
  1  1  1   718.67499 11.8   722.13380    2  1  1   715.53238 87.6   722.13429
  1  1  1   718.83781 88.6   722.29662    2  1  1   715.69557 84.0   722.29748
  1  1  1   719.03779 85.6   722.49660    2  1  1   715.89467 88.3   722.49658
  1  1  1   719.10584 86.9   722.56465    2  1  1   715.96287 81.2   722.56478
  1  1  1   719.23635 61.8   722.69516    2  1  1   716.09414 85.2   722.69605
  1  1  1   719.33790 18.7   722.79671    2  1  1   716.19540 82.9   722.79731
  1  1  1   719.47302 79.5   722.93183    2  1  1   716.32964 85.7   722.93155
  1  1  1   719.52163 82.1   722.98044    2  1  1   716.37928 88.5   722.98119
  1  1  1   719.56206 80.6   723.02087    2  1  1   716.41908 88.3   723.02099
  1  1  1   719.73891 87.5   723.19772    2  1  1   716.59559 59.3   723.19750
  1  1  1   719.76602 86.1   723.22483    2  1  1   716.62288 83.8   723.22479
  1  1  1   719.82307 40.6   723.28188    2  1  1   716.68010 80.3   723.28201
  1  1  1   719.83055 84.3   723.28936    2  1  1   716.68788 88.7   723.28979
  1  1  1   719.85570  0.5   723.31451    2  1  1   716.71289 82.8   723.31480
  1  1  1   719.86016 15.3   723.31897    2  1  1   716.71785 78.7   723.31976
  1  1  1   719.94961  7.2   723.40842    2  1  1   716.80666 85.5   723.40857
  1  1  1   719.96423  4.7   723.42304    2  1  1   716.82066 89.8   723.42257
  1  1  1   719.96912 11.9   723.42793    2  1  1   716.82637 80.8   723.42828
  1  1  1   720.12317  0.8   723.58198    2  1  1   716.98068 80.7   723.58259
  1  1  1   720.65183 63.3   724.11064    2  1  1   717.50806 82.8   724.10997
  1  1  1   720.67727 62.0   724.13608    2  1  1   717.53369 81.4   724.13560
  1  1  1   720.72404  1.3   724.18285    2  1  1   717.58187 76.9   724.18378
  1  1  1   720.78314 80.7   724.24195    2  1  1   717.63965 82.6   724.24156
  1  1  1   721.06111 83.6   724.51992    2  1  1   717.91787 83.1   724.51978
  1  1  1   721.14819 86.9   724.60700    2  1  1   718.00468 15.8   724.60659
  1  1  1   721.17137 80.8   724.63018    2  1  1   718.02818 82.3   724.63009
  1  1  1   721.29681 84.9   724.75562    2  1  1   718.15468 83.3   724.75659
  1  1  1   721.33372 81.8   724.79253    2  1  1   718.19147 78.8   724.79338
  1  1  1   721.36130 83.3   724.82011    2  1  1   718.21741 40.3   724.81932
  1  1  1   721.36602 87.4   724.82483    2  1  1   718.22299 84.9   724.82490
  1  1  1   721.52798 47.8   724.98679    2  1  1   718.38445 88.9   724.98636
  1  1  1   721.54617 70.4   725.00498    2  1  1   718.40292 87.2   725.00483
  1  1  1   721.66764 85.7   725.12645    2  1  1   718.52427 80.3   725.12618
  1  1  1   721.67822 82.2   725.13703    2  1  1   718.53591 80.4   725.13782
  1  1  1   721.80244 89.6   725.26125    2  1  1   718.66018 89.0   725.26209
  1  1  1   721.85001 85.5   725.30882    2  1  1   718.70705 74.1   725.30896
  1  1  1   721.91140 76.7   725.37021    2  1  1   718.76884 89.6   725.37075
  1  1  1   721.97662 79.4   725.43543    2  1  1   718.83321 88.7   725.43512
  1  1  1   721.98189 86.4   725.44070    2  1  1   718.83781 88.6   725.43972
  1  1  1   722.02210 80.6   725.48091    2  1  1   718.87905 79.7   725.48096
  1  1  1   722.19725 72.4   725.65606    2  1  1   719.05409 65.4   725.65600
  1  1  1   722.44413 85.6   725.90294    2  1  1   719.30101 81.2   725.90292
  1  1  1   722.49717 90.0   725.95598    2  1  1   719.35310  7.4   725.95501
  1  1  1   722.52727 85.1   725.98608    2  1  1   719.38443 88.8   725.98634
  1  1  1   722.63114 53.7   726.08995    2  1  1   719.48719 78.6   726.08910
  1  1  1   722.83283 79.7   726.29164    2  1  1   719.68934 81.8   726.29125
  1  1  1   722.88157 52.4   726.34038    2  1  1   719.73891 87.5   726.34082
  1  1  1   722.90490 62.6   726.36371    2  1  1   719.76174 88.6   726.36365
  1  1  1   723.00276 80.1   726.46157    2  1  1   719.86016 15.3   726.46207
  1  1  1   723.04183 87.6   726.50064    2  1  1   719.89818 66.8   726.50009
  1  1  1   723.09262 34.2   726.55143    2  1  1   719.94961  7.2   726.55152
  1  1  1   723.10724 85.7   726.56605    2  1  1   719.96423  4.7   726.56614
  1  1  1   723.14128 89.2   726.60009    2  1  1   719.99891 66.8   726.60082
  1  1  1   723.21402 70.7   726.67283    2  1  1   720.07161  9.7   726.67352
  1  1  1   723.23782 81.9   726.69663    2  1  1   720.09401  1.1   726.69592
  1  1  1   723.26544 87.4   726.72425    2  1  1   720.12317  0.8   726.72508
  1  1  1   723.27128 87.4   726.73009    2  1  1   720.12853 53.9   726.73044
  1  1  1   723.31015 86.9   726.76896    2  1  1   720.16765  1.5   726.76956
  1  1  1   723.47045 86.0   726.92926    2  1  1   720.32656 85.3   726.92847
  1  1  1   723.72936 89.7   727.18817    2  1  1   720.58592 89.8   727.18783
  1  1  1   724.05041 22.0   727.50922    2  1  1   720.90651 59.6   727.50842
  1  1  1   724.11037 88.8   727.56918    2  1  1   720.96717 86.4   727.56908
  1  1  1   724.15294 85.1   727.61175    2  1  1   721.01043 86.7   727.61234
  1  1  1   724.44435 81.2   727.90316    2  1  1   721.30207 87.5   727.90398
  1  1  1   724.47083 80.8   727.92964    2  1  1   721.32857 87.6   727.93048
  1  1  1   724.50439 88.8   727.96320    2  1  1   721.36130 83.3   727.96321
  1  1  1   724.50895 76.5   727.96776    2  1  1   721.36602 87.4   727.96793
  1  1  1   724.52401 31.2   727.98282    2  1  1   721.38133 86.3   727.98324
  1  1  1   724.54597 86.6   728.00478    2  1  1   721.40323 62.1   728.00514
  1  1  1   724.56107 29.3   728.01988    2  1  1   721.41847 52.8   728.02038
  1  1  1   724.57089 81.9   728.02970    2  1  1   721.42832 78.8   728.03023
  1  1  1   724.58026 86.0   728.03907    2  1  1   721.43756 26.1   728.03947
  1  1  1   724.61297 77.9   728.07178    2  1  1   721.47024 64.7   728.07215
  1  1  1   724.61861 31.2   728.07742    2  1  1   721.47579 86.3   728.07770
  1  1  1   724.69856 87.3   728.15737    2  1  1   721.55532 61.6   728.15723
  1  1  1   724.70423 23.0   728.16304    2  1  1   721.56202 87.8   728.16393
  1  1  1   724.94560 81.2   728.40441    2  1  1   721.80244 89.6   728.40435
  1  1  1   724.97939 88.9   728.43820    2  1  1   721.83706 86.5   728.43897
  1  1  1   725.09352 80.9   728.55233    2  1  1   721.95005 72.1   728.55196
  1  1  1   725.09913 31.2   728.55794    2  1  1   721.95549 59.9   728.55740
  1  1  1   725.16598 31.7   728.62479    2  1  1   722.02210 80.6   728.62401
  1  1  1   725.48496 50.4   728.94377    2  1  1   722.34093 74.7   728.94284
  1  1  1   725.66479 47.1   729.12360    2  1  1   722.52238 88.4   729.12429
  1  1  1   725.80029 87.7   729.25910    2  1  1   722.65718 76.5   729.25909
  1  1  1   725.81979 54.7   729.27860    2  1  1   722.67605 86.0   729.27796
  1  1  1   725.86097 65.0   729.31978    2  1  1   722.71794 72.5   729.31985
  1  1  1   725.93545 38.2   729.39426    2  1  1   722.79136 76.6   729.39327
  1  1  1   725.97570 84.1   729.43451    2  1  1   722.83283 79.7   729.43474
  1  1  1   726.01400 56.7   729.47281    2  1  1   722.87094 84.6   729.47285
  1  1  1   726.01978 88.1   729.47859    2  1  1   722.87629 74.1   729.47820
  1  1  1   726.23493 83.6   729.69374    2  1  1   723.09262 34.2   729.69453
  1  1  1   726.25982 54.3   729.71863    2  1  1   723.11580 85.0   729.71771
  1  1  1   726.60350 88.6   730.06231    2  1  1   723.46076 71.0   730.06267
  1  1  1   726.68895 83.7   730.14776    2  1  1   723.54658 30.1   730.14849
  1  1  1   726.72524 56.2   730.18405    2  1  1   723.58201 45.8   730.18392
  1  1  1   726.73986 89.4   730.19867    2  1  1   723.59598 82.1   730.19789

 Searching   2  0  2 near    728.18956
 No   1:   2  1  2        6.08707  reg   717.102 -   727.102
 No   2:   3  1  2       11.05245  reg   712.137 -   722.137
  2  1  2   717.37141 89.5   723.45848    3  1  2   712.40546 76.9   723.45791
  2  1  2   718.19147 78.8   724.27854    3  1  2   713.22580 78.1   724.27825
  2  1  2   719.53798 74.9   725.62505    3  1  2   714.57247 70.0   725.62492
  2  1  2   719.76174 88.6   725.84881    3  1  2   714.79570 81.5   725.84815
  2  1  2   719.96423  4.7   726.05130    3  1  2   714.99975 84.4   726.05220
  2  1  2   719.99891 66.8   726.08598    3  1  2   715.03360 87.7   726.08605
  2  1  2   720.07161  9.7   726.15868    3  1  2   715.10651 68.1   726.15896
  2  1  2   720.11863  1.5   726.20570    3  1  2   715.15345 89.7   726.20590
  2  1  2   720.12317  0.8   726.21024    3  1  2   715.15841 59.7   726.21086
  2  1  2   720.12853 53.9   726.21560    3  1  2   715.16375 66.7   726.21620
  2  1  2   720.25850 70.8   726.34557    3  1  2   715.29404 85.3   726.34649
  2  1  2   720.39896 77.1   726.48603    3  1  2   715.43359 82.0   726.48604
  2  1  2   720.49816 85.5   726.58524    3  1  2   715.53238 87.6   726.58483
  2  1  2   720.51349  8.8   726.60056    3  1  2   715.54805 87.1   726.60050
  2  1  2   720.61646 89.2   726.70353    3  1  2   715.65052 89.9   726.70297
  2  1  2   720.65183 63.3   726.73890    3  1  2   715.68605 73.3   726.73850
  2  1  2   720.66184 31.4   726.74891    3  1  2   715.69557 84.0   726.74802
  2  1  2   720.71870 17.4   726.80577    3  1  2   715.75283 84.1   726.80528
  2  1  2   720.85053 65.8   726.93760    3  1  2   715.88461 86.9   726.93706
  2  1  2   720.92264 76.1   727.00971    3  1  2   715.95651 85.2   727.00896
  2  1  2   720.92832 89.7   727.01539    3  1  2   715.96287 81.2   727.01532
  2  1  2   721.08988 85.7   727.17695    3  1  2   716.12523 84.8   727.17768
  2  1  2   721.16656 87.1   727.25363    3  1  2   716.20101 55.1   727.25346
  2  1  2   721.19611 62.4   727.28318    3  1  2   716.23091 84.9   727.28336
  2  1  2   721.23717 89.8   727.32424    3  1  2   716.27225 85.5   727.32470
  2  1  2   721.24751 63.3   727.33458    3  1  2   716.28302 73.4   727.33547
  2  1  2   721.39556 85.5   727.48263    3  1  2   716.42986 72.6   727.48231
  2  1  2   721.47024 64.7   727.55731    3  1  2   716.50530 24.6   727.55775
  2  1  2   721.55532 61.6   727.64239    3  1  2   716.58958 85.4   727.64203
  2  1  2   721.65287 66.9   727.73994    3  1  2   716.68788 88.7   727.74033
  2  1  2   721.67822 82.2   727.76529    3  1  2   716.71289 82.8   727.76534
  2  1  2   721.87437 63.3   727.96144    3  1  2   716.90905 85.7   727.96150
  2  1  2   721.95549 59.9   728.04256    3  1  2   716.98963 80.4   728.04208
  2  1  2   722.19725 72.4   728.28432    3  1  2   717.23151 83.9   728.28396
  2  1  2   722.22422 80.6   728.31129    3  1  2   717.25830 87.7   728.31075
  2  1  2   722.22976 89.8   728.31683    3  1  2   717.26350 80.7   728.31595
  2  1  2   722.31653 85.1   728.40360    3  1  2   717.35093 89.6   728.40338
  2  1  2   722.46494 87.1   728.55201    3  1  2   717.49961 74.1   728.55206
  2  1  2   722.49265 85.1   728.57972    3  1  2   717.52699 83.0   728.57944
  2  1  2   722.52238 88.4   728.60945    3  1  2   717.55752 84.5   728.60997
  2  1  2   722.53259 79.6   728.61966    3  1  2   717.56743 82.4   728.61988
  2  1  2   722.53863 82.0   728.62570    3  1  2   717.57226 84.6   728.62471
  2  1  2   722.65718 76.5   728.74425    3  1  2   717.69080 89.2   728.74325
  2  1  2   722.81969 87.6   728.90676    3  1  2   717.85493 74.6   728.90738
  2  1  2   722.87629 74.1   728.96336    3  1  2   717.91176 66.0   728.96421
  2  1  2   722.92694 61.0   729.01401    3  1  2   717.96229 88.8   729.01474
  2  1  2   723.06166 86.8   729.14873    3  1  2   718.09636 90.0   729.14881
  2  1  2   723.16835 31.9   729.25542    3  1  2   718.20209 71.3   729.25454
  2  1  2   723.25634 88.8   729.34341    3  1  2   718.29096 84.1   729.34341
  2  1  2   723.29359 52.5   729.38066    3  1  2   718.32901 82.1   729.38146
  2  1  2   723.53551 56.1   729.62258    3  1  2   718.56932 81.8   729.62177
  2  1  2   723.70610 76.8   729.79317    3  1  2   718.74051 80.7   729.79296
  2  1  2   723.72936 89.7   729.81643    3  1  2   718.76302 81.0   729.81547
  2  1  2   723.91420 49.2   730.00127    3  1  2   718.94809 86.2   730.00054
  2  1  2   724.00228 80.8   730.08935    3  1  2   719.03779 85.6   730.09024
  2  1  2   724.47083 80.8   730.55790    3  1  2   719.50608 70.5   730.55853
  2  1  2   724.62280 41.3   730.70987    3  1  2   719.65750 76.9   730.70995
  2  1  2   724.64368 60.4   730.73075    3  1  2   719.67865 89.8   730.73110
  2  1  2   724.70423 23.0   730.79130    3  1  2   719.73891 87.5   730.79136
  2  1  2   724.75032 20.3   730.83739    3  1  2   719.78494 88.6   730.83739
  2  1  2   724.75559 39.7   730.84266    3  1  2   719.78956 89.2   730.84201
  2  1  2   724.77050 89.2   730.85757    3  1  2   719.80485 79.3   730.85730
  2  1  2   724.85327 85.8   730.94034    3  1  2   719.88767 62.0   730.94012
  2  1  2   724.97939 88.9   731.06646    3  1  2   720.01317  5.2   731.06562
  2  1  2   725.02653 11.5   731.11360    3  1  2   720.06080  6.0   731.11325
  2  1  2   725.09352 80.9   731.18059    3  1  2   720.12853 53.9   731.18098
  2  1  2   725.14559 89.2   731.23266    3  1  2   720.18080 41.4   731.23325
  2  1  2   725.48496 50.4   731.57203    3  1  2   720.51962 85.0   731.57207
  2  1  2   725.57722 59.6   731.66429    3  1  2   720.61102 57.7   731.66347
  2  1  2   725.63280 69.5   731.71987    3  1  2   720.66723 79.5   731.71968
  2  1  2   725.64235 77.7   731.72942    3  1  2   720.67727 62.0   731.72972
  2  1  2   725.89397 66.0   731.98104    3  1  2   720.92832 89.7   731.98077
  2  1  2   725.95235 85.5   732.03942    3  1  2   720.98687 69.9   732.03932
  2  1  2   725.97570 84.1   732.06277    3  1  2   721.01043 86.7   732.06288
  2  1  2   726.11352 90.0   732.20059    3  1  2   721.14819 86.9   732.20064
  2  1  2   726.15216 11.7   732.23923    3  1  2   721.18688 89.6   732.23933
  2  1  2   726.19418 56.2   732.28125    3  1  2   721.22927 86.6   732.28172
  2  1  2   726.29023 75.5   732.37730    3  1  2   721.32425 85.5   732.37670
  2  1  2   726.35597 71.5   732.44304    3  1  2   721.39088 85.3   732.44333
  2  1  2   726.58208 54.3   732.66915    3  1  2   721.61612 89.6   732.66857
  2  1  2   726.63223 51.5   732.71930    3  1  2   721.66764 85.7   732.72009
  2  1  2   726.64274 58.2   732.72981    3  1  2   721.67822 82.2   732.73067
  2  1  2   726.65462 55.0   732.74169    3  1  2   721.68857 87.9   732.74102
  2  1  2   726.71994 76.9   732.80701    3  1  2   721.75527 86.9   732.80772
  2  1  2   726.81548 31.9   732.90255    3  1  2   721.85001 85.5   732.90246
  2  1  2   726.84436 88.1   732.93143    3  1  2   721.87976 86.5   732.93221
  2  1  2   726.92005 85.1   733.00712    3  1  2   721.95549 59.9   733.00794
  2  1  2   726.94142 48.9   733.02849    3  1  2   721.97662 79.4   733.02907
  2  1  2   726.94680 65.8   733.03387    3  1  2   721.98189 86.4   733.03434
  2  1  2   726.97214 75.3   733.05921    3  1  2   722.00627 85.9   733.05872

 Searching   3  0  3 near    732.34844
 No   1:   3  1  3       10.02318  reg   717.325 -   727.325
 No   2:   4  1  3       16.97345  reg   710.375 -   720.375
  3  1  3   718.15468 83.3   728.17786    4  1  3   711.20401 76.3   728.17746
  3  1  3   718.21741 40.3   728.24059    4  1  3   711.26672 87.6   728.24017
  3  1  3   718.29096 84.1   728.31414    4  1  3   711.34087 77.7   728.31432
  3  1  3   718.59263 88.8   728.61581    4  1  3   711.64334 68.9   728.61679
  3  1  3   718.68896 60.7   728.71214    4  1  3   711.73818 33.5   728.71163
  3  1  3   719.15436 88.5   729.17754    4  1  3   712.20413 89.9   729.17758
  3  1  3   719.30101 81.2   729.32419    4  1  3   712.35160 84.2   729.32505
  3  1  3   720.01317  5.2   730.03635    4  1  3   713.06387 71.9   730.03732
  3  1  3   720.07161  9.7   730.09479    4  1  3   713.12196 75.6   730.09541
  3  1  3   720.25850 70.8   730.28168    4  1  3   713.30901 73.5   730.28246
  3  1  3   720.31130 45.5   730.33448    4  1  3   713.36080 82.7   730.33425
  3  1  3   720.32656 85.3   730.34974    4  1  3   713.37710 88.1   730.35055
  3  1  3   720.39896 77.1   730.42214    4  1  3   713.44949 58.9   730.42294
  3  1  3   720.52997  1.4   730.55315    4  1  3   713.57931 89.5   730.55276
  3  1  3   720.56427 72.5   730.58745    4  1  3   713.61311 85.5   730.58656
  3  1  3   720.65674  1.3   730.67992    4  1  3   713.70643 71.4   730.67988
  3  1  3   720.66723 79.5   730.69041    4  1  3   713.71795 72.3   730.69140
  3  1  3   720.67727 62.0   730.70045    4  1  3   713.72700 76.8   730.70045
  3  1  3   720.70516 87.9   730.72834    4  1  3   713.75530 67.8   730.72875
  3  1  3   721.47579 86.3   731.49897    4  1  3   714.52642 84.5   731.49987
  3  1  3   721.95005 72.1   731.97323    4  1  3   714.99975 84.4   731.97320
  3  1  3   722.09355 62.6   732.11673    4  1  3   715.14407 87.4   732.11752
  3  1  3   722.10830 85.2   732.13148    4  1  3   715.15841 59.7   732.13186
  3  1  3   722.11414 76.3   732.13732    4  1  3   715.16375 66.7   732.13720
  3  1  3   722.42268 89.7   732.44586    4  1  3   715.47217 86.7   732.44562
  3  1  3   722.43790 52.6   732.46108    4  1  3   715.48772 80.1   732.46117
  3  1  3   722.46494 87.1   732.48812    4  1  3   715.51474 75.5   732.48819
  3  1  3   722.62596 78.3   732.64914    4  1  3   715.67628 89.8   732.64973
  3  1  3   722.64626 85.7   732.66944    4  1  3   715.69557 84.0   732.66902
  3  1  3   722.65131 90.0   732.67449    4  1  3   715.70084 88.9   732.67429
  3  1  3   722.70382 74.6   732.72700    4  1  3   715.75283 84.1   732.72628
  3  1  3   722.92694 61.0   732.95012    4  1  3   715.97758 87.0   732.95103
  3  1  3   723.23252 57.9   733.25570    4  1  3   716.28302 73.4   733.25647
  3  1  3   723.25634 88.8   733.27952    4  1  3   716.30633 84.2   733.27978
  3  1  3   723.32595 84.4   733.34913    4  1  3   716.37528 84.2   733.34873
  3  1  3   723.43262 46.3   733.45580    4  1  3   716.48165 76.7   733.45510
  3  1  3   723.48778 80.2   733.51096    4  1  3   716.53812 84.4   733.51157
  3  1  3   723.54658 30.1   733.56976    4  1  3   716.59559 59.3   733.56904
  3  1  3   723.55253 85.7   733.57571    4  1  3   716.60296 86.1   733.57641
  3  1  3   723.63829 52.4   733.66147    4  1  3   716.68788 88.7   733.66133
  3  1  3   723.67667 84.3   733.69985    4  1  3   716.72733 82.5   733.70078
  3  1  3   723.69514 89.3   733.71832    4  1  3   716.74568 83.2   733.71913
  3  1  3   723.93909 74.7   733.96227    4  1  3   716.98963 80.4   733.96308
  3  1  3   724.14824 83.8   734.17142    4  1  3   717.19698 81.1   734.17043
  3  1  3   724.30216 82.4   734.32534    4  1  3   717.35093 89.6   734.32438
  3  1  3   724.48392 87.5   734.50710    4  1  3   717.53369 81.4   734.50714
  3  1  3   724.51816 86.4   734.54134    4  1  3   717.56743 82.4   734.54088
  3  1  3   724.56107 29.3   734.58425    4  1  3   717.61117 74.4   734.58462
  3  1  3   724.58939 88.0   734.61257    4  1  3   717.63965 82.6   734.61310
  3  1  3   724.69856 87.3   734.72174    4  1  3   717.74804 78.0   734.72149
  3  1  3   724.83374 25.9   734.85692    4  1  3   717.88296 88.0   734.85641
  3  1  3   724.93624 89.2   734.95942    4  1  3   717.98561 89.8   734.95906
  3  1  3   724.97939 88.9   735.00257    4  1  3   718.02818 82.3   735.00163
  3  1  3   725.10396 40.9   735.12714    4  1  3   718.15468 83.3   735.12813
  3  1  3   725.11412 86.8   735.13730    4  1  3   718.16313 84.3   735.13658
  3  1  3   725.27920 81.8   735.30238    4  1  3   718.32901 82.1   735.30246
  3  1  3   725.54950 56.4   735.57268    4  1  3   718.59865 11.5   735.57210
  3  1  3   725.55546 86.2   735.57864    4  1  3   718.60458 80.9   735.57803
  3  1  3   725.65830 74.5   735.68148    4  1  3   718.70705 74.1   735.68050
  3  1  3   725.91703 68.5   735.94021    4  1  3   718.96717 89.4   735.94062
  3  1  3   726.03479 57.6   736.05797    4  1  3   719.08381 84.7   736.05726
  3  1  3   726.15216 11.7   736.17534    4  1  3   719.20192 78.4   736.17537
  3  1  3   726.15819 89.7   736.18137    4  1  3   719.20744 86.5   736.18089
  3  1  3   726.16794 79.2   736.19112    4  1  3   719.21749 82.3   736.19094
  3  1  3   726.18236 78.6   736.20554    4  1  3   719.23114 23.9   736.20459
  3  1  3   726.21049 62.7   736.23367    4  1  3   719.26111 87.1   736.23456
  3  1  3   726.68895 83.7   736.71213    4  1  3   719.73891 87.5   736.71236
  3  1  3   726.73041 76.3   736.75359    4  1  3   719.78068 89.3   736.75413
  3  1  3   726.73986 89.4   736.76304    4  1  3   719.78956 89.2   736.76301
  3  1  3   726.81032 87.0   736.83350    4  1  3   719.86016 15.3   736.83361
  3  1  3   726.81548 31.9   736.83866    4  1  3   719.86608 65.0   736.83953
  3  1  3   726.92005 85.1   736.94323    4  1  3   719.96912 11.9   736.94257
  3  1  3   726.95689 48.3   736.98007    4  1  3   720.00724 26.8   736.98069
  3  1  3   727.32133 87.5   737.34451    4  1  3   720.37068 87.6   737.34413

 Searching   4  0  4 near    737.84736
 No   1:   4  1  4       15.26012  reg   717.587 -   727.587
 No   2:   5  1  4       24.35254  reg   708.495 -   718.495
  4  1  4   718.68896 60.7   733.94908    5  1  4   709.59674 88.5   733.94928
  4  1  4   718.83781 88.6   734.09793    5  1  4   709.74469 68.4   734.09723
  4  1  4   719.12175 87.1   734.38187    5  1  4   710.03032 68.2   734.38286
  4  1  4   719.23635 61.8   734.49647    5  1  4   710.14351 87.9   734.49605
  4  1  4   719.44008 29.7   734.70020    5  1  4   710.34781 78.5   734.70035
  4  1  4   719.47302 79.5   734.73314    5  1  4   710.38058 88.6   734.73312
  4  1  4   719.47793 86.7   734.73805    5  1  4   710.38560 89.2   734.73814
  4  1  4   719.48719 78.6   734.74731    5  1  4   710.39567 49.0   734.74821
  4  1  4   719.68934 81.8   734.94946    5  1  4   710.59687 74.7   734.94941
  4  1  4   719.76174 88.6   735.02186    5  1  4   710.66976 88.5   735.02230
  4  1  4   719.85570  0.5   735.11582    5  1  4   710.76342 77.2   735.11596
  4  1  4   720.01317  5.2   735.27329    5  1  4   710.92117 89.7   735.27371
  4  1  4   720.57623 84.7   735.83635    5  1  4   711.48398 68.4   735.83652
  4  1  4   720.87978 79.0   736.13990    5  1  4   711.78712 71.3   736.13966
  4  1  4   721.16656 87.1   736.42668    5  1  4   712.07501 80.7   736.42755
  4  1  4   721.29681 84.9   736.55693    5  1  4   712.20413 89.9   736.55667
  4  1  4   721.68857 87.9   736.94869    5  1  4   712.59523 78.5   736.94777
  4  1  4   722.01538 67.4   737.27550    5  1  4   712.92284 83.9   737.27538
  4  1  4   722.72434 60.7   737.98446    5  1  4   713.63190 79.0   737.98444
  4  1  4   722.81969 87.6   738.07981    5  1  4   713.72700 76.8   738.07954
  4  1  4   723.54096 82.5   738.80108    5  1  4   714.44807 76.8   738.80061
  4  1  4   723.91420 49.2   739.17432    5  1  4   714.82232 81.2   739.17486
  4  1  4   724.11037 88.8   739.37049    5  1  4   715.01777 87.7   739.37031
  4  1  4   724.26050 88.2   739.52062    5  1  4   715.16907 87.2   739.52161
  4  1  4   724.30216 82.4   739.56228    5  1  4   715.21001 70.5   739.56255
  4  1  4   724.49503 83.5   739.75515    5  1  4   715.40353 67.3   739.75607
  4  1  4   724.58026 86.0   739.84038    5  1  4   715.48772 80.1   739.84026
  4  1  4   724.60723 21.1   739.86735    5  1  4   715.51474 75.5   739.86728
  4  1  4   724.61861 31.2   739.87873    5  1  4   715.52705 89.9   739.87959
  4  1  4   724.82249 29.4   740.08261    5  1  4   715.72929 60.1   740.08183
  4  1  4   725.00552 89.8   740.26564    5  1  4   715.91258 86.1   740.26512
  4  1  4   725.08750 37.0   740.34762    5  1  4   715.99467 74.8   740.34721
  4  1  4   725.21698 85.6   740.47710    5  1  4   716.12523 84.8   740.47777
  4  1  4   725.30462 34.4   740.56474    5  1  4   716.21192 86.8   740.56446
  4  1  4   725.47117 31.1   740.73129    5  1  4   716.37928 88.5   740.73182
  4  1  4   725.71556 66.5   740.97568    5  1  4   716.62288 83.8   740.97542
  4  1  4   725.78040 44.1   741.04052    5  1  4   716.68788 88.7   741.04042
  4  1  4   725.80491 87.2   741.06503    5  1  4   716.71289 82.8   741.06543
  4  1  4   725.80951 86.1   741.06963    5  1  4   716.71785 78.7   741.07039
  4  1  4   725.81979 54.7   741.07991    5  1  4   716.72733 82.5   741.07987
  4  1  4   725.91221 80.4   741.17233    5  1  4   716.82066 89.8   741.17320
  4  1  4   726.22587 85.7   741.48600    5  1  4   717.13442 87.8   741.48696
  4  1  4   726.29023 75.5   741.55035    5  1  4   717.19698 81.1   741.54952
  4  1  4   726.35597 71.5   741.61609    5  1  4   717.26350 80.7   741.61604
  4  1  4   726.51960 69.4   741.77972    5  1  4   717.42705 72.4   741.77959
  4  1  4   726.66063 83.1   741.92075    5  1  4   717.56743 82.4   741.91997
  4  1  4   726.79442 73.5   742.05454    5  1  4   717.70109 74.0   742.05363
  4  1  4   726.94680 65.8   742.20692    5  1  4   717.85493 74.6   742.20747
  4  1  4   727.29384 63.9   742.55396    5  1  4   718.20209 71.3   742.55463
  4  1  4   727.45385 84.7   742.71397    5  1  4   718.36219 84.4   742.71473

 Searching   5  0  5 near    744.65134
 No   1:   5  1  5       21.78938  reg   717.862 -   727.862
 No   2:   6  1  5       33.17281  reg   706.479 -   716.479
  5  1  5   717.89331 84.6   739.68269    6  1  5   706.51065 74.7   739.68346
  5  1  5   718.61017 69.5   740.39955    6  1  5   707.22645 71.2   740.39926
  5  1  5   718.96717 89.4   740.75655    6  1  5   707.58440 33.7   740.75721
  5  1  5   719.26111 87.1   741.05049    6  1  5   707.87793 44.2   741.05074
  5  1  5   719.90685  8.2   741.69623    6  1  5   708.52433 85.2   741.69714
  5  1  5   720.52997  1.4   742.31935    6  1  5   709.14636 61.1   742.31917
  5  1  5   720.92832 89.7   742.71770    6  1  5   709.54444 77.8   742.71725
  5  1  5   721.19611 62.4   742.98549    6  1  5   709.81288 88.8   742.98569
  5  1  5   721.25233 86.4   743.04171    6  1  5   709.86923 81.6   743.04204
  5  1  5   721.26230 25.2   743.05168    6  1  5   709.87843 73.8   743.05124
  5  1  5   721.54617 70.4   743.33555    6  1  5   710.16247 78.2   743.33528
  5  1  5   721.75527 86.9   743.54465    6  1  5   710.37086 83.8   743.54367
  5  1  5   722.05287 86.7   743.84225    6  1  5   710.66976 88.5   743.84257
  5  1  5   722.53259 79.6   744.32197    6  1  5   711.14917 21.0   744.32198
  5  1  5   722.53863 82.0   744.32801    6  1  5   711.15476 88.2   744.32757
  5  1  5   722.56307 80.8   744.35245    6  1  5   711.17926 46.9   744.35207
  5  1  5   722.72434 60.7   744.51372    6  1  5   711.34087 77.7   744.51368
  5  1  5   723.02671 32.8   744.81609    6  1  5   711.64334 68.9   744.81615
  5  1  5   723.12133 63.0   744.91071    6  1  5   711.73818 33.5   744.91099
  5  1  5   723.27661 87.2   745.06599    6  1  5   711.89228 52.1   745.06509
  5  1  5   723.28255 60.6   745.07193    6  1  5   711.89846 56.1   745.07127
  5  1  5   723.41517 81.0   745.20455    6  1  5   712.03091 87.9   745.20372
  5  1  5   724.26050 88.2   746.04988    6  1  5   712.87626 85.8   746.04907
  5  1  5   724.50439 88.8   746.29377    6  1  5   713.12196 75.6   746.29477
  5  1  5   724.53098 24.7   746.32036    6  1  5   713.14715 79.4   746.31996
  5  1  5   724.53753 21.7   746.32691    6  1  5   713.15372 84.2   746.32653
  5  1  5   724.56595 21.0   746.35533    6  1  5   713.18197 81.5   746.35478
  5  1  5   724.76143 16.5   746.55081    6  1  5   713.37710 88.1   746.54991
  5  1  5   724.83374 25.9   746.62312    6  1  5   713.44949 58.9   746.62230
  5  1  5   724.89429 85.1   746.68367    6  1  5   713.50998 51.8   746.68279
  5  1  5   725.10943 85.8   746.89881    6  1  5   713.72700 76.8   746.89981
  5  1  5   725.11412 86.8   746.90350    6  1  5   713.73136 80.2   746.90417
  5  1  5   725.27920 81.8   747.06858    6  1  5   713.89621 82.7   747.06902
  5  1  5   725.43451 40.3   747.22389    6  1  5   714.05126 87.9   747.22407
  5  1  5   725.44572 76.5   747.23510    6  1  5   714.06287 89.3   747.23568
  5  1  5   725.85545 75.7   747.64483    6  1  5   714.47280 87.5   747.64561
  5  1  5   726.06365 88.7   747.85303    6  1  5   714.68095 74.4   747.85376
  5  1  5   726.15819 89.7   747.94757    6  1  5   714.77464 89.3   747.94745
  5  1  5   726.17254 88.0   747.96192    6  1  5   714.78958 23.5   747.96239
  5  1  5   726.31441 72.6   748.10379    6  1  5   714.93120 87.8   748.10401
  5  1  5   726.48999 88.7   748.27937    6  1  5   715.10651 68.1   748.27932
  5  1  5   726.60350 88.6   748.39288    6  1  5   715.21941 55.9   748.39222
  5  1  5   726.66063 83.1   748.45001    6  1  5   715.27814 85.5   748.45095
  5  1  5   726.96220 83.2   748.75158    6  1  5   715.57921 81.2   748.75202
  5  1  5   726.97848 69.9   748.76786    6  1  5   715.59478 77.5   748.76759
  5  1  5   727.11298 46.5   748.90236    6  1  5   715.72929 60.1   748.90210
  5  1  5   727.40788 89.8   749.19726    6  1  5   716.02448 47.3   749.19729
  5  1  5   727.57912 70.4   749.36850    6  1  5   716.19540 82.9   749.36821
  5  1  5   727.61442 53.6   749.40380    6  1  5   716.23091 84.9   749.40372
  5  1  5   727.63217 88.5   749.42155    6  1  5   716.24817 88.8   749.42098
  5  1  5   727.75797 83.2   749.54735    6  1  5   716.37528 84.2   749.54809
  5  1  5   727.86442 86.4   749.65380    6  1  5   716.48165 76.7   749.65446
