Range    : 1.000
Accuracy : 0.001
Control file  : C2HD3gr   
Spectrum file : s         

 Searching   1  1  0 near    727.63042
 No   1:   0  0  0        0.00000  reg   726.630 -   728.630
 No   2:   2  2  0       12.78833  reg   713.842 -   715.842
  0  0  0   726.62063 83.1   726.62063    2  2  0   713.83169 89.9   726.62002
  0  0  0   726.66761 78.7   726.66761    2  2  0   713.87882 47.0   726.66715
  0  0  0   726.67219 70.5   726.67219    2  2  0   713.88462 76.6   726.67295
  0  0  0   726.69555 86.2   726.69555    2  2  0   713.90736 77.9   726.69569
  0  0  0   726.70768 48.7   726.70768    2  2  0   713.91933 89.5   726.70766
  0  0  0   726.71376 68.0   726.71376    2  2  0   713.92510 74.3   726.71343
  0  0  0   726.75400 73.9   726.75400    2  2  0   713.96646 69.4   726.75479
  0  0  0   726.79832 54.5   726.79832    2  2  0   714.01095 58.2   726.79928
  0  0  0   727.05966 85.4   727.05966    2  2  0   714.27083 86.9   727.05916
  0  0  0   727.13266 32.8   727.13266    2  2  0   714.34482 62.8   727.13315
  0  0  0   727.15823 18.8   727.15823    2  2  0   714.36914 82.0   727.15747
  0  0  0   727.18420 67.4   727.18420    2  2  0   714.39525 70.4   727.18358
  0  0  0   727.20517 80.8   727.20517    2  2  0   714.41749 77.0   727.20582
  0  0  0   727.21145 41.7   727.21145    2  2  0   714.42310 45.8   727.21143
  0  0  0   727.28331 36.8   727.28331    2  2  0   714.49578 60.0   727.28411
  0  0  0   727.31401 44.8   727.31401    2  2  0   714.52564 26.3   727.31397
  0  0  0   727.31997 32.5   727.31997    2  2  0   714.53066 64.0   727.31899
  0  0  0   727.34099 85.3   727.34099    2  2  0   714.55351 43.7   727.34184
  0  0  0   727.38013 30.5   727.38013    2  2  0   714.59156 89.5   727.37989
  0  0  0   727.39021 63.4   727.39021    2  2  0   714.60106 82.8   727.38939
  0  0  0   727.39625 34.1   727.39625    2  2  0   714.60850 51.2   727.39683
  0  0  0   727.40194 10.7   727.40194    2  2  0   714.61453 18.4   727.40286
  0  0  0   727.47670 26.4   727.47670    2  2  0   714.68818 50.6   727.47651
  0  0  0   727.58591 66.2   727.58591    2  2  0   714.79746 21.9   727.58579
  0  0  0   727.59760 78.6   727.59760    2  2  0   714.80946 74.1   727.59779
  0  0  0   727.60980 17.9   727.60980    2  2  0   714.82208 18.9   727.61041
  0  0  0   727.69855 55.0   727.69855    2  2  0   714.91076 72.5   727.69909
  0  0  0   727.78096 84.8   727.78096    2  2  0   714.99164 60.0   727.77997
  0  0  0   727.80606 76.0   727.80606    2  2  0   715.01859 28.6   727.80692
  0  0  0   727.84977 73.3   727.84977    2  2  0   715.06205 79.2   727.85038
  0  0  0   727.88846 60.3   727.88846    2  2  0   715.10032 19.7   727.88865
  0  0  0   727.93174 66.5   727.93174    2  2  0   715.14281 50.4   727.93114
  0  0  0   727.96218 48.9   727.96218    2  2  0   715.17463 67.2   727.96296
  0  0  0   727.96844 29.5   727.96844    2  2  0   715.18062 37.4   727.96895
  0  0  0   728.04442 74.0   728.04442    2  2  0   715.25608 49.1   728.04441
  0  0  0   728.07605 54.6   728.07605    2  2  0   715.28835 12.9   728.07668
  0  0  0   728.08216 59.1   728.08216    2  2  0   715.29375 25.7   728.08208
  0  0  0   728.14626 79.1   728.14626    2  2  0   715.35713 83.4   728.14546
  0  0  0   728.17648 73.5   728.17648    2  2  0   715.38737 29.8   728.17570
  0  0  0   728.18189 50.1   728.18189    2  2  0   715.39349 86.2   728.18182
  0  0  0   728.22880 51.7   728.22880    2  2  0   715.44028 72.9   728.22861
  0  0  0   728.26117 46.9   728.26117    2  2  0   715.47232 43.2   728.26065
  0  0  0   728.27085 40.6   728.27085    2  2  0   715.48300 21.8   728.27133
  0  0  0   728.29380 76.1   728.29380    2  2  0   715.50612 17.5   728.29445
  0  0  0   728.49460 42.9   728.49460    2  2  0   715.70701 73.3   728.49534
  0  0  0   728.50886 41.8   728.50886    2  2  0   715.72064 66.1   728.50897
  0  0  0   728.58120 36.2   728.58120    2  2  0   715.79340 12.6   728.58173
  0  0  0   728.58756 20.5   728.58756    2  2  0   715.79905 84.5   728.58738
  0  0  0   728.59737 28.6   728.59737    2  2  0   715.80981 40.7   728.59814
  0  0  0   728.62592 31.8   728.62592    2  2  0   715.83738 36.4   728.62571

 Searching   2  1  1 near    730.60191
 No   1:   1  0  1        1.39995  reg   728.202 -   730.202
 No   2:   2  2  1       12.77805  reg   716.824 -   718.824
 No   3:   3  2  1       17.02892  reg   712.573 -   714.573
  1  0  1   728.20513 46.1   729.60508    2  2  1   716.82647 11.3   729.60452
  1  0  1   728.22880 51.7   729.62875    2  2  1   716.85001 38.2   729.62806
                                          3  2  1   712.60017 86.7   729.62909
  1  0  1   728.27085 40.6   729.67080    3  2  1   712.64129 73.2   729.67021
  1  0  1   728.29380 76.1   729.69375    2  2  1   716.91530 47.6   729.69335
  1  0  1   728.29838 84.4   729.69833    2  2  1   716.92011 44.8   729.69816
                                          3  2  1   712.66892 83.0   729.69784
  1  0  1   728.31252 32.6   729.71247    2  2  1   716.93488 87.3   729.71293
  1  0  1   728.31802 70.6   729.71797    2  2  1   716.94069 13.4   729.71874
  1  0  1   728.33876 68.9   729.73871    2  2  1   716.96032 86.3   729.73837
  1  0  1   728.36544 42.2   729.76539    3  2  1   712.73731 78.6   729.76623
  1  0  1   728.40471 88.7   729.80466    3  2  1   712.77632 84.3   729.80524
  1  0  1   728.42947 51.6   729.82942    3  2  1   712.80068 81.0   729.82960
  1  0  1   728.46678 43.6   729.86673    2  2  1   717.08811 84.2   729.86616
  1  0  1   728.51797 26.7   729.91792    2  2  1   717.13952 13.3   729.91757
  1  0  1   728.54142 16.4   729.94137    2  2  1   717.16350 10.2   729.94155
  1  0  1   728.59737 28.6   729.99732    3  2  1   712.96920 87.0   729.99812
  1  0  1   728.61282 70.5   730.01277    2  2  1   717.23479 36.8   730.01284
                                          3  2  1   712.98456 52.4   730.01348
  1  0  1   728.61871 66.8   730.01866    2  2  1   717.24088 87.1   730.01893
                                          3  2  1   712.98996 83.5   730.01888
  1  0  1   728.64944 78.7   730.04939    3  2  1   713.02083 79.3   730.04975
  1  0  1   728.72038 60.1   730.12033    3  2  1   713.09181 84.1   730.12073
  1  0  1   728.72595 81.6   730.12590    3  2  1   713.09642 89.8   730.12534
  1  0  1   728.73115 62.7   730.13110    3  2  1   713.10141 34.2   730.13033
  1  0  1   728.83233 43.4   730.23228    2  2  1   717.45392 79.5   730.23197
                                          3  2  1   713.20244 87.0   730.23136
  1  0  1   728.88700 61.5   730.28695    2  2  1   717.50846 21.2   730.28651
  1  0  1   728.90623 64.3   730.30618    2  2  1   717.52746 23.9   730.30551
  1  0  1   728.91261 52.6   730.31256    2  2  1   717.53402 16.7   730.31207
  1  0  1   728.96119 64.2   730.36114    2  2  1   717.58238 11.0   730.36043
  1  0  1   728.96966 68.3   730.36961    2  2  1   717.59237 46.3   730.37042
                                          3  2  1   713.34067 37.7   730.36959
  1  0  1   728.98111 89.7   730.38106    3  2  1   713.35142 89.9   730.38034
  1  0  1   729.02864 34.6   730.42859    2  2  1   717.65071 46.9   730.42876
  1  0  1   729.03492 85.1   730.43487    3  2  1   713.40659 35.3   730.43551
  1  0  1   729.05854 48.6   730.45849    2  2  1   717.68134 75.7   730.45939
  1  0  1   729.06496 79.1   730.46491    2  2  1   717.68609 82.6   730.46414
  1  0  1   729.08789 63.2   730.48784    2  2  1   717.71000 29.8   730.48805
                                          3  2  1   713.45957 83.8   730.48849
  1  0  1   729.12568 54.1   730.52563    3  2  1   713.49713 52.9   730.52605
  1  0  1   729.14947 81.7   730.54942    3  2  1   713.52104 79.1   730.54996
  1  0  1   729.16363 68.5   730.56358    3  2  1   713.53490 85.3   730.56382
  1  0  1   729.22322 45.5   730.62317    3  2  1   713.59507 84.3   730.62399
  1  0  1   729.22845 74.4   730.62840    3  2  1   713.59917 70.9   730.62809
  1  0  1   729.23346 73.6   730.63341    3  2  1   713.60435 80.5   730.63327
  1  0  1   729.24092 26.8   730.64087    2  2  1   717.86346 60.3   730.64151
  1  0  1   729.24856 43.4   730.64851    3  2  1   713.61878 67.1   730.64770
  1  0  1   729.27052 53.5   730.67047    2  2  1   717.89252 25.3   730.67057
  1  0  1   729.29324 67.6   730.69319    3  2  1   713.66505 52.7   730.69397
  1  0  1   729.32277 61.2   730.72272    2  2  1   717.94507 73.3   730.72312
                                          3  2  1   713.69433 64.3   730.72325
  1  0  1   729.35403 46.7   730.75398    3  2  1   713.72580 14.7   730.75472
  1  0  1   729.37382 40.5   730.77377    3  2  1   713.74389 89.1   730.77281
  1  0  1   729.43918 45.6   730.83913    3  2  1   713.80935 89.4   730.83827
  1  0  1   729.45394 83.4   730.85389    2  2  1   718.07541 84.2   730.85346
  1  0  1   729.46832 63.6   730.86827    2  2  1   718.09059 25.6   730.86864
  1  0  1   729.48228 44.1   730.88223    2  2  1   718.10459 66.7   730.88264
  1  0  1   729.58476 27.4   730.98471    2  2  1   718.20760 24.5   730.98565
                                          3  2  1   713.95661 79.0   730.98553
  1  0  1   729.58967 17.8   730.98962    3  2  1   713.96143 80.3   730.99035
  1  0  1   729.60851 70.8   731.00846    2  2  1   718.23087 66.1   731.00892
  1  0  1   729.64951 57.9   731.04946    2  2  1   718.27050 63.8   731.04855
  1  0  1   729.66384 84.4   731.06379    3  2  1   714.03524 76.1   731.06416
  1  0  1   729.69189 66.5   731.09184    2  2  1   718.31358 77.5   731.09163
  1  0  1   729.69865 61.0   731.09860    2  2  1   718.31984 75.6   731.09789
  1  0  1   729.75643 64.7   731.15638    2  2  1   718.37760 66.0   731.15565
  1  0  1   729.76247 55.4   731.16242    2  2  1   718.38505 42.8   731.16310
  1  0  1   729.82187 26.2   731.22182    3  2  1   714.19385 82.0   731.22276
  1  0  1   729.85400 57.4   731.25395    3  2  1   714.22472 83.9   731.25364
  1  0  1   729.86027 59.5   731.26022    3  2  1   714.23033 89.8   731.25925
  1  0  1   729.86443 75.6   731.26438    3  2  1   714.23631 12.4   731.26523
  1  0  1   729.87711 66.3   731.27706    3  2  1   714.24726 60.6   731.27618
  1  0  1   729.90195 54.0   731.30190    3  2  1   714.27395 87.1   731.30287
  1  0  1   729.90649 42.2   731.30644    2  2  1   718.52914 14.0   731.30719
  1  0  1   730.03247 74.2   731.43242    2  2  1   718.65356 65.9   731.43161
                                          3  2  1   714.40358 84.6   731.43250
  1  0  1   730.03965 64.5   731.43960    2  2  1   718.66060 50.8   731.43865
  1  0  1   730.05996 58.0   731.45991    3  2  1   714.43172 85.5   731.46064
  1  0  1   730.07504 82.6   731.47499    2  2  1   718.69688 21.3   731.47493
  1  0  1   730.08355 32.3   731.48350    3  2  1   714.45506 51.4   731.48398
  1  0  1   730.08940 79.8   731.48935    3  2  1   714.46118 25.1   731.49010
  1  0  1   730.10694 81.9   731.50689    2  2  1   718.72955 73.8   731.50760
  1  0  1   730.11155 74.0   731.51150    3  2  1   714.48169 50.7   731.51061
  1  0  1   730.13178 74.6   731.53173    2  2  1   718.75408 55.5   731.53213
                                          3  2  1   714.50195 55.7   731.53087
  1  0  1   730.14121 82.5   731.54116    2  2  1   718.76248 21.9   731.54053
  1  0  1   730.14905 87.7   731.54900    3  2  1   714.52042 53.8   731.54934
  1  0  1   730.15521 56.6   731.55516    3  2  1   714.52564 26.3   731.55456
  1  0  1   730.20636 77.4   731.60631    3  2  1   714.57781 77.8   731.60673
  2  2  1   716.82087 38.7   729.59892    3  2  1   712.57035 85.2   729.59927
  2  2  1   716.89932 77.6   729.67737    3  2  1   712.64810 83.4   729.67702
  2  2  1   716.90502 70.9   729.68307    3  2  1   712.65380 88.2   729.68272
  2  2  1   716.92011 44.8   729.69816    3  2  1   712.66892 83.0   729.69784
  2  2  1   716.92572 44.1   729.70377    3  2  1   712.67417 68.3   729.70309
  2  2  1   716.95333 38.2   729.73138    3  2  1   712.70255 76.3   729.73147
  2  2  1   716.98276 37.3   729.76081    3  2  1   712.73182 69.6   729.76074
  2  2  1   717.09849 53.0   729.87654    3  2  1   712.84799 83.9   729.87691
  2  2  1   717.10330 18.3   729.88135    3  2  1   712.85302 49.2   729.88194
  2  2  1   717.10908 66.6   729.88713    3  2  1   712.85901 14.2   729.88793
  2  2  1   717.13315 34.0   729.91120    3  2  1   712.88208 55.3   729.91100
  2  2  1   717.17397 76.6   729.95202    3  2  1   712.92355 22.7   729.95247
  2  2  1   717.22100 53.9   729.99905    3  2  1   712.96920 87.0   729.99812
  2  2  1   717.22549 61.5   730.00354    3  2  1   712.97426 76.2   730.00318
  2  2  1   717.23479 36.8   730.01284    3  2  1   712.98456 52.4   730.01348
  2  2  1   717.24088 87.1   730.01893    3  2  1   712.98996 83.5   730.01888
  2  2  1   717.28134 56.1   730.05939    3  2  1   713.03080 85.9   730.05972
  2  2  1   717.32425 76.9   730.10230    3  2  1   713.07302 79.9   730.10194
  2  2  1   717.38423 36.5   730.16228    3  2  1   713.13260 63.5   730.16152
  2  2  1   717.39292 71.7   730.17097    3  2  1   713.14185 64.0   730.17077
  2  2  1   717.45392 79.5   730.23197    3  2  1   713.20244 87.0   730.23136
  2  2  1   717.57295 24.5   730.35100    3  2  1   713.32295 44.3   730.35187
  2  2  1   717.59237 46.3   730.37042    3  2  1   713.34067 37.7   730.36959
  2  2  1   717.59762 57.1   730.37567    3  2  1   713.34662 87.8   730.37554
  2  2  1   717.61175 13.8   730.38980    3  2  1   713.36016 49.5   730.38908
  2  2  1   717.63526 68.2   730.41331    3  2  1   713.38413 85.8   730.41305
  2  2  1   717.68134 75.7   730.45939    3  2  1   713.43127 51.5   730.46019
  2  2  1   717.69178 36.1   730.46983    3  2  1   713.44016 51.2   730.46908
  2  2  1   717.71000 29.8   730.48805    3  2  1   713.45957 83.8   730.48849
  2  2  1   717.83073 23.2   730.60878    3  2  1   713.58003 40.7   730.60895
  2  2  1   717.83639 82.6   730.61444    3  2  1   713.58544 84.8   730.61436
  2  2  1   717.84085 70.5   730.61890    3  2  1   713.58993 76.9   730.61885
  2  2  1   717.85998 53.6   730.63803    3  2  1   713.60912 80.5   730.63804
  2  2  1   717.86919 76.7   730.64724    3  2  1   713.61878 67.1   730.64770
  2  2  1   717.94507 73.3   730.72312    3  2  1   713.69433 64.3   730.72325
  2  2  1   717.96145 63.9   730.73950    3  2  1   713.71118 80.0   730.74010
  2  2  1   717.97736 58.9   730.75541    3  2  1   713.72580 14.7   730.75472
  2  2  1   718.02196 77.7   730.80001    3  2  1   713.77029 45.8   730.79921
  2  2  1   718.12429 83.0   730.90234    3  2  1   713.87262 67.6   730.90154
  2  2  1   718.13052 25.4   730.90857    3  2  1   713.87882 47.0   730.90774
  2  2  1   718.20760 24.5   730.98565    3  2  1   713.95661 79.0   730.98553
  2  2  1   718.23579 68.1   731.01384    3  2  1   713.98501 72.3   731.01393
  2  2  1   718.23978 76.7   731.01783    3  2  1   713.98943 83.8   731.01835
  2  2  1   718.24578 12.4   731.02383    3  2  1   713.99473 12.8   731.02365
  2  2  1   718.25151 87.3   731.02956    3  2  1   714.00014 75.8   731.02906
  2  2  1   718.25662 79.6   731.03467    3  2  1   714.00523 81.0   731.03415
  2  2  1   718.27635 56.6   731.05440    3  2  1   714.02624 66.6   731.05516
  2  2  1   718.28224 63.3   731.06029    3  2  1   714.03184 80.3   731.06076
  2  2  1   718.31984 75.6   731.09789    3  2  1   714.06825 55.5   731.09717
  2  2  1   718.32981 20.5   731.10786    3  2  1   714.07808 77.9   731.10700
  2  2  1   718.34208 35.8   731.12013    3  2  1   714.09070 64.2   731.11962
  2  2  1   718.35825 65.3   731.13630    3  2  1   714.10698 87.8   731.13590
  2  2  1   718.38505 42.8   731.16310    3  2  1   714.13473 73.4   731.16365
  2  2  1   718.39099 61.5   731.16904    3  2  1   714.14081 66.9   731.16973
  2  2  1   718.45475 22.7   731.23280    3  2  1   714.20480 88.9   731.23372
  2  2  1   718.46479 81.0   731.24284    3  2  1   714.21422 77.6   731.24314
  2  2  1   718.49308 73.2   731.27113    3  2  1   714.24149 87.9   731.27041
  2  2  1   718.49776 75.7   731.27581    3  2  1   714.24726 60.6   731.27618
  2  2  1   718.54272 53.7   731.32077    3  2  1   714.29145 87.7   731.32037
  2  2  1   718.58431 53.2   731.36236    3  2  1   714.33382 83.0   731.36274
  2  2  1   718.59057 39.6   731.36862    3  2  1   714.33916 75.8   731.36808
  2  2  1   718.64703 19.8   731.42508    3  2  1   714.39525 70.4   731.42417
  2  2  1   718.65356 65.9   731.43161    3  2  1   714.40358 84.6   731.43250
  2  2  1   718.76248 21.9   731.54053    3  2  1   714.51072 84.7   731.53964
  2  2  1   718.78144 43.3   731.55949    3  2  1   714.53066 64.0   731.55958

 Searching   3  1  2 near    735.05245
 No   1:   2  0  2        4.18956  reg   729.863 -   731.863
 No   2:   3  2  2       16.97774  reg   717.075 -   719.075
 No   3:   4  2  2       22.72108  reg   711.331 -   713.331
  2  0  2   729.87711 66.3   734.06667    3  2  2   717.08811 84.2   734.06585
  2  0  2   729.88225 73.8   734.07181    3  2  2   717.09308 58.4   734.07082
  2  0  2   729.88716 51.9   734.07672    3  2  2   717.09849 53.0   734.07623
  2  0  2   729.91806 33.6   734.10762    4  2  2   711.38600 84.4   734.10708
  2  0  2   729.92727 65.1   734.11683    3  2  2   717.13952 13.3   734.11726
                                          4  2  2   711.39557 82.7   734.11665
  2  0  2   729.93252 31.8   734.12208    4  2  2   711.40104 59.3   734.12212
  2  0  2   729.93764 82.9   734.12720    3  2  2   717.14948 25.8   734.12722
  2  0  2   729.95572 16.9   734.14528    4  2  2   711.42356 82.2   734.14464
  2  0  2   729.97039 75.9   734.15995    4  2  2   711.43905 84.0   734.16013
  2  0  2   729.98343 21.5   734.17299    4  2  2   711.45221 11.4   734.17329
  2  0  2   729.98957 62.0   734.17913    3  2  2   717.20145 80.5   734.17919
  2  0  2   730.02235 83.1   734.21191    3  2  2   717.23479 36.8   734.21253
                                          4  2  2   711.49017 75.8   734.21125
  2  0  2   730.03247 74.2   734.22203    4  2  2   711.50035 87.4   734.22143
  2  0  2   730.05026 57.5   734.23982    3  2  2   717.26308 16.8   734.24082
  2  0  2   730.06906 58.6   734.25862    3  2  2   717.28134 56.1   734.25908
  2  0  2   730.11155 74.0   734.30111    3  2  2   717.32425 76.9   734.30199
  2  0  2   730.13178 74.6   734.32134    4  2  2   711.60073 21.1   734.32181
  2  0  2   730.18109 62.0   734.37065    3  2  2   717.39292 71.7   734.37066
                                          4  2  2   711.65037 77.2   734.37145
  2  0  2   730.19119 74.7   734.38075    3  2  2   717.40367 35.1   734.38141
                                          4  2  2   711.65999 69.6   734.38107
  2  0  2   730.19597 68.5   734.38553    3  2  2   717.40844 11.0   734.38618
  2  0  2   730.20636 77.4   734.39592    3  2  2   717.41905 36.6   734.39679
  2  0  2   730.22979 76.8   734.41935    3  2  2   717.44065 45.6   734.41839
  2  0  2   730.25741 68.2   734.44697    3  2  2   717.47007 15.9   734.44781
  2  0  2   730.29261 85.1   734.48217    4  2  2   711.76168 80.2   734.48276
  2  0  2   730.30190 60.9   734.49146    3  2  2   717.51451 38.9   734.49225
  2  0  2   730.31288 12.6   734.50244    4  2  2   711.78052 88.0   734.50160
  2  0  2   730.33160 53.0   734.52116    3  2  2   717.54260 19.7   734.52034
                                          4  2  2   711.80072 85.8   734.52180
  2  0  2   730.33712 77.9   734.52668    4  2  2   711.80555 88.1   734.52663
  2  0  2   730.35659 26.9   734.54615    3  2  2   717.56790 21.2   734.54564
                                          4  2  2   711.82423 85.1   734.54531
  2  0  2   730.36148 19.9   734.55104    3  2  2   717.57295 24.5   734.55069
  2  0  2   730.37155 59.2   734.56111    3  2  2   717.58238 11.0   734.56012
  2  0  2   730.39244 78.6   734.58200    4  2  2   711.86105 86.6   734.58213
  2  0  2   730.44420 28.8   734.63376    3  2  2   717.65527 14.3   734.63301
  2  0  2   730.45765 78.7   734.64721    3  2  2   717.67038 88.4   734.64812
  2  0  2   730.47015 35.3   734.65971    3  2  2   717.68134 75.7   734.65908
  2  0  2   730.47677 22.9   734.66633    4  2  2   711.94452 60.7   734.66560
  2  0  2   730.48094 32.6   734.67050    3  2  2   717.69178 36.1   734.66952
                                          4  2  2   711.94968 87.7   734.67076
  2  0  2   730.49099 87.8   734.68055    4  2  2   711.95944 84.9   734.68052
  2  0  2   730.49569 38.0   734.68525    4  2  2   711.96450 71.0   734.68558
  2  0  2   730.52789 48.3   734.71745    4  2  2   711.99577 74.6   734.71685
  2  0  2   730.54380 73.9   734.73336    3  2  2   717.75552 85.3   734.73326
  2  0  2   730.56542 74.0   734.75498    3  2  2   717.77818 54.9   734.75592
  2  0  2   730.59844 70.6   734.78800    4  2  2   712.06604 62.2   734.78712
  2  0  2   730.60866 68.6   734.79822    3  2  2   717.82140 46.8   734.79914
  2  0  2   730.61845 21.0   734.80801    3  2  2   717.83073 23.2   734.80847
  2  0  2   730.62489 59.4   734.81445    3  2  2   717.83639 82.6   734.81413
  2  0  2   730.63000 57.2   734.81956    3  2  2   717.84085 70.5   734.81859
  2  0  2   730.67971 66.6   734.86927    3  2  2   717.89252 25.3   734.87027
  2  0  2   730.70070 76.4   734.89026    4  2  2   712.16927 89.5   734.89035
  2  0  2   730.70617 80.2   734.89573    3  2  2   717.91706 25.5   734.89480
  2  0  2   730.71554 70.1   734.90510    4  2  2   712.18315 86.1   734.90423
  2  0  2   730.74678 86.7   734.93634    4  2  2   712.21438 64.6   734.93546
  2  0  2   730.76721 81.9   734.95677    4  2  2   712.23557 79.7   734.95665
  2  0  2   730.78080 25.7   734.97036    3  2  2   717.99253 82.1   734.97027
  2  0  2   730.79958 23.6   734.98914    4  2  2   712.26831 75.8   734.98939
  2  0  2   730.80535 46.9   734.99491    4  2  2   712.27468 76.5   734.99576
  2  0  2   730.80999 83.6   734.99955    3  2  2   718.02196 77.7   734.99970
  2  0  2   730.81523 17.3   735.00479    3  2  2   718.02778 18.0   735.00552
  2  0  2   730.84672 89.2   735.03628    4  2  2   712.31492 46.9   735.03600
  2  0  2   730.86560 58.7   735.05516    4  2  2   712.33428 73.3   735.05536
  2  0  2   730.88181 48.0   735.07137    4  2  2   712.35041 23.8   735.07149
  2  0  2   730.91316 60.7   735.10272    3  2  2   718.12429 83.0   735.10203
  2  0  2   730.95145 78.8   735.14101    3  2  2   718.16320 27.1   735.14094
  2  0  2   730.96535 82.4   735.15491    3  2  2   718.17815 81.2   735.15589
  2  0  2   730.98074 74.6   735.17030    3  2  2   718.19229 11.2   735.17003
  2  0  2   731.00942 63.3   735.19898    3  2  2   718.22218 33.1   735.19992
                                          4  2  2   712.47785 81.6   735.19894
  2  0  2   731.01847 74.7   735.20803    3  2  2   718.23087 66.1   735.20861
  2  0  2   731.02414 30.0   735.21370    3  2  2   718.23579 68.1   735.21353
  2  0  2   731.03347 12.0   735.22303    3  2  2   718.24578 12.4   735.22352
  2  0  2   731.05978 86.7   735.24934    4  2  2   712.52771 67.1   735.24879
  2  0  2   731.06558 75.6   735.25514    4  2  2   712.53364 82.5   735.25472
  2  0  2   731.06903 72.1   735.25859    4  2  2   712.53744 77.6   735.25852
  2  0  2   731.07988 58.2   735.26944    3  2  2   718.29157 24.7   735.26931
  2  0  2   731.10164 65.9   735.29120    3  2  2   718.31358 77.5   735.29132
                                          4  2  2   712.57035 85.2   735.29143
  2  0  2   731.11865 11.4   735.30821    3  2  2   718.32981 20.5   735.30755
  2  0  2   731.15799 30.1   735.34755    3  2  2   718.36966 27.2   735.34740
  2  0  2   731.27636 69.0   735.46592    3  2  2   718.48901 80.9   735.46675
  2  0  2   731.28418 87.9   735.47374    4  2  2   712.75298 79.0   735.47406
  2  0  2   731.29043 47.8   735.47999    3  2  2   718.50271 65.0   735.48045
  2  0  2   731.30846 88.2   735.49802    4  2  2   712.77632 84.3   735.49740
  2  0  2   731.31398 38.8   735.50354    4  2  2   712.78334 81.6   735.50442
  2  0  2   731.32416 87.9   735.51372    3  2  2   718.53506 12.8   735.51280
                                          4  2  2   712.79186 87.2   735.51294
  2  0  2   731.32945 81.3   735.51901    4  2  2   712.79730 79.9   735.51838
  2  0  2   731.35193 68.4   735.54149    4  2  2   712.82073 83.7   735.54181
  2  0  2   731.44801 58.4   735.63757    3  2  2   718.66060 50.8   735.63834
  2  0  2   731.53835 62.6   735.72791    3  2  2   718.75032 61.2   735.72806
  2  0  2   731.55727 64.4   735.74683    3  2  2   718.76888 45.7   735.74662
                                          4  2  2   713.02479 84.3   735.74587
  2  0  2   731.59987 78.8   735.78943    4  2  2   713.06784 50.7   735.78892
  2  0  2   731.62089 82.0   735.81045    3  2  2   718.83269 49.3   735.81043
  2  0  2   731.62635 87.1   735.81591    3  2  2   718.83771 45.5   735.81545
  2  0  2   731.63248 72.3   735.82204    4  2  2   713.10141 34.2   735.82249
  2  0  2   731.65814 85.4   735.84770    3  2  2   718.86963 80.0   735.84737
                                          4  2  2   713.12687 63.8   735.84795
  2  0  2   731.66256 81.0   735.85212    3  2  2   718.87373 63.9   735.85147
  2  0  2   731.66764 88.3   735.85720    3  2  2   718.87927 15.9   735.85701
  2  0  2   731.67781 73.4   735.86737    4  2  2   713.14640 20.4   735.86748
  2  0  2   731.68850 68.0   735.87806    3  2  2   718.89941 18.2   735.87715
  2  0  2   731.74749 41.0   735.93705    4  2  2   713.21649 70.6   735.93757
  2  0  2   731.80508 66.5   735.99464    3  2  2   719.01734 45.7   735.99508
  2  0  2   731.85396 61.4   736.04352    4  2  2   713.32295 44.3   736.04403
  3  2  2   717.13315 34.0   734.11089    4  2  2   711.39065 81.4   734.11173
  3  2  2   717.13952 13.3   734.11726    4  2  2   711.39557 82.7   734.11665
  3  2  2   717.26864 85.1   734.24638    4  2  2   711.52527 77.7   734.24635
  3  2  2   717.34468 74.4   734.32242    4  2  2   711.60073 21.1   734.32181
  3  2  2   717.35118 41.1   734.32892    4  2  2   711.60720 26.4   734.32828
  3  2  2   717.37111 39.5   734.34885    4  2  2   711.62678 17.2   734.34786
  3  2  2   717.39292 71.7   734.37066    4  2  2   711.65037 77.2   734.37145
  3  2  2   717.39917 83.3   734.37691    4  2  2   711.65497 86.5   734.37605
  3  2  2   717.40367 35.1   734.38141    4  2  2   711.65999 69.6   734.38107
  3  2  2   717.45392 79.5   734.43166    4  2  2   711.71054 87.7   734.43162
  3  2  2   717.56790 21.2   734.54564    4  2  2   711.82423 85.1   734.54531
  3  2  2   717.65527 14.3   734.63301    4  2  2   711.91157 60.5   734.63265
  3  2  2   717.73819 64.9   734.71593    4  2  2   711.99577 74.6   734.71685
  3  2  2   717.86919 76.7   734.84693    4  2  2   712.12609 61.8   734.84717
  3  2  2   717.89252 25.3   734.87027    4  2  2   712.14966 64.1   734.87074
  3  2  2   717.98523 44.4   734.96297    4  2  2   712.24146 85.4   734.96254
  3  2  2   718.03385 53.3   735.01159    4  2  2   712.29104 75.9   735.01212
  3  2  2   718.05735 60.6   735.03509    4  2  2   712.31492 46.9   735.03600
  3  2  2   718.10459 66.7   735.08233    4  2  2   712.36131 85.0   735.08239
  3  2  2   718.11455 81.9   735.09229    4  2  2   712.37071 69.7   735.09179
  3  2  2   718.12429 83.0   735.10203    4  2  2   712.38015 82.5   735.10123
  3  2  2   718.17815 81.2   735.15589    4  2  2   712.43484 80.3   735.15592
  3  2  2   718.20760 24.5   735.18534    4  2  2   712.46505 65.4   735.18613
  3  2  2   718.22218 33.1   735.19992    4  2  2   712.47785 81.6   735.19894
  3  2  2   718.23978 76.7   735.21752    4  2  2   712.49660 65.5   735.21768
  3  2  2   718.27050 63.8   735.24824    4  2  2   712.52771 67.1   735.24879
  3  2  2   718.27635 56.6   735.25409    4  2  2   712.53364 82.5   735.25472
  3  2  2   718.31358 77.5   735.29132    4  2  2   712.57035 85.2   735.29143
  3  2  2   718.32981 20.5   735.30755    4  2  2   712.58582 61.9   735.30690
  3  2  2   718.35314 74.1   735.33088    4  2  2   712.60885 79.0   735.32993
  3  2  2   718.38505 42.8   735.36279    4  2  2   712.64129 73.2   735.36237
  3  2  2   718.39099 61.5   735.36873    4  2  2   712.64810 83.4   735.36918
  3  2  2   718.40338 40.5   735.38112    4  2  2   712.65999 87.7   735.38107
  3  2  2   718.41272 82.1   735.39046    4  2  2   712.66892 83.0   735.39000
  3  2  2   718.50271 65.0   735.48045    4  2  2   712.76018 29.2   735.48126
  3  2  2   718.51337 10.7   735.49111    4  2  2   712.76997 57.2   735.49105
  3  2  2   718.53506 12.8   735.51280    4  2  2   712.79186 87.2   735.51294
  3  2  2   718.59057 39.6   735.56831    4  2  2   712.84799 83.9   735.56907
  3  2  2   718.76888 45.7   735.74662    4  2  2   713.02479 84.3   735.74587
  3  2  2   718.77426 49.6   735.75200    4  2  2   713.03080 85.9   735.75188
  3  2  2   718.82532 63.5   735.80306    4  2  2   713.08239 57.9   735.80347
  3  2  2   718.85987 18.9   735.83761    4  2  2   713.11593 45.5   735.83701
  3  2  2   718.86963 80.0   735.84737    4  2  2   713.12687 63.8   735.84795

 Searching   4  1  3 near    740.97345
 No   1:   3  0  3        8.34844  reg   731.625 -   733.625
 No   2:   4  2  3       22.56924  reg   717.404 -   719.404
 No   3:   5  2  3       29.89272  reg   710.081 -   712.081
  3  0  3   731.62635 87.1   739.97479    5  2  3   710.08286 79.8   739.97558
  3  0  3   731.67781 73.4   740.02625    5  2  3   710.13409 79.6   740.02681
  3  0  3   731.68243 68.9   740.03087    5  2  3   710.13858 83.0   740.03130
  3  0  3   731.68850 68.0   740.03694    5  2  3   710.14418 35.1   740.03690
  3  0  3   731.70694 51.0   740.05538    4  2  3   717.48656 18.3   740.05580
                                          5  2  3   710.16332 19.2   740.05604
  3  0  3   731.71219 76.5   740.06063    4  2  3   717.49182 29.7   740.06106
  3  0  3   731.74749 41.0   740.09593    4  2  3   717.52746 23.9   740.09670
  3  0  3   731.75906 74.9   740.10750    5  2  3   710.21438 84.8   740.10710
  3  0  3   731.79475 83.7   740.14319    4  2  3   717.57295 24.5   740.14219
  3  0  3   731.85396 61.4   740.20240    5  2  3   710.31037 29.1   740.20309
  3  0  3   731.86060 63.5   740.20904    4  2  3   717.64055 21.7   740.20979
  3  0  3   731.87024 57.0   740.21868    5  2  3   710.32602 82.6   740.21874
  3  0  3   731.87528 48.5   740.22372    4  2  3   717.65527 14.3   740.22451
  3  0  3   731.96259 78.4   740.31103    5  2  3   710.41768 74.7   740.31040
  3  0  3   731.98212 63.8   740.33056    4  2  3   717.76132 85.5   740.33056
  3  0  3   732.01750 88.2   740.36594    5  2  3   710.47244 81.0   740.36516
  3  0  3   732.06222 75.3   740.41066    4  2  3   717.84085 70.5   740.41009
  3  0  3   732.08775 83.6   740.43619    5  2  3   710.54364 52.7   740.43636
  3  0  3   732.09762 78.9   740.44606    5  2  3   710.55362 88.6   740.44634
  3  0  3   732.10694 69.9   740.45538    5  2  3   710.56355 84.6   740.45627
  3  0  3   732.11246 88.1   740.46090    4  2  3   717.89252 25.3   740.46177
  3  0  3   732.11802 57.4   740.46646    5  2  3   710.57349 70.5   740.46621
  3  0  3   732.12339 77.7   740.47183    5  2  3   710.57991 82.1   740.47263
  3  0  3   732.13001 84.9   740.47845    5  2  3   710.58538 57.8   740.47810
  3  0  3   732.14123 86.3   740.48967    5  2  3   710.59601 11.3   740.48873
  3  0  3   732.15324 80.5   740.50168    4  2  3   717.93292 18.9   740.50216
                                          5  2  3   710.60929 73.7   740.50201
  3  0  3   732.19733 87.2   740.54577    4  2  3   717.97736 58.9   740.54660
  3  0  3   732.24541 75.8   740.59385    5  2  3   710.70028 87.0   740.59300
  3  0  3   732.25470 33.5   740.60314    4  2  3   718.03385 53.3   740.60309
  3  0  3   732.27824 35.6   740.62668    4  2  3   718.05735 60.6   740.62659
  3  0  3   732.29712 83.3   740.64556    4  2  3   718.07541 84.2   740.64465
  3  0  3   732.30042 87.7   740.64886    4  2  3   718.08054 71.4   740.64978
  3  0  3   732.31161 85.3   740.66005    4  2  3   718.09059 25.6   740.65983
  3  0  3   732.31658 77.2   740.66502    4  2  3   718.09635 49.7   740.66559
  3  0  3   732.32601 72.1   740.67445    4  2  3   718.10459 66.7   740.67383
  3  0  3   732.38363 84.9   740.73207    4  2  3   718.16320 27.1   740.73244
  3  0  3   732.39852 45.3   740.74696    4  2  3   718.17815 81.2   740.74739
  3  0  3   732.40655 88.2   740.75499    5  2  3   710.86294 41.4   740.75566
  3  0  3   732.42188 66.6   740.77032    5  2  3   710.87790 73.1   740.77062
  3  0  3   732.42731 17.3   740.77575    5  2  3   710.88354 79.9   740.77626
  3  0  3   732.48364 82.8   740.83208    5  2  3   710.93909 77.9   740.83181
  3  0  3   732.49381 85.2   740.84225    5  2  3   710.94925 23.5   740.84198
  3  0  3   732.50673 86.9   740.85517    5  2  3   710.96236 80.3   740.85508
  3  0  3   732.51224 78.3   740.86068    4  2  3   718.29157 24.7   740.86081
  3  0  3   732.54076 31.3   740.88920    4  2  3   718.31984 75.6   740.88908
                                          5  2  3   710.99733 81.3   740.89005
  3  0  3   732.57344 70.5   740.92188    4  2  3   718.35314 74.1   740.92238
  3  0  3   732.59780 13.3   740.94624    4  2  3   718.37760 66.0   740.94684
  3  0  3   732.61187 64.4   740.96031    4  2  3   718.39099 61.5   740.96023
  3  0  3   732.62367 18.4   740.97211    4  2  3   718.40338 40.5   740.97262
  3  0  3   732.63105 73.8   740.97949    4  2  3   718.40965 81.7   740.97889
  3  0  3   732.64359 83.8   740.99203    4  2  3   718.42265 26.5   740.99189
  3  0  3   732.66025 81.8   741.00869    5  2  3   711.11692 88.8   741.00964
  3  0  3   732.67479 23.9   741.02323    4  2  3   718.45475 22.7   741.02399
  3  0  3   732.68615 62.8   741.03459    4  2  3   718.46479 81.0   741.03403
  3  0  3   732.78920 64.8   741.13764    4  2  3   718.56839 19.5   741.13763
                                          5  2  3   711.24578 80.0   741.13850
  3  0  3   732.80499 56.9   741.15343    4  2  3   718.58431 53.2   741.15355
                                          5  2  3   711.26000 63.4   741.15272
  3  0  3   732.81080 62.6   741.15924    4  2  3   718.59057 39.6   741.15981
                                          5  2  3   711.26621 34.7   741.15893
  3  0  3   732.83052 12.9   741.17896    5  2  3   711.28644 16.0   741.17916
  3  0  3   732.88081 49.5   741.22925    4  2  3   718.66060 50.8   741.22984
  3  0  3   732.92522 69.1   741.27366    5  2  3   711.38010 20.7   741.27282
  3  0  3   732.94520 62.7   741.29364    4  2  3   718.72426 57.1   741.29350
                                          5  2  3   711.40104 59.3   741.29376
  3  0  3   732.95043 44.2   741.29887    4  2  3   718.72955 73.8   741.29879
  3  0  3   732.96464 83.8   741.31308    4  2  3   718.74477 85.1   741.31401
  3  0  3   732.97165 57.3   741.32009    4  2  3   718.75032 61.2   741.31956
                                          5  2  3   711.42789 85.2   741.32061
  3  0  3   732.98234 31.1   741.33078    4  2  3   718.76248 21.9   741.33172
                                          5  2  3   711.43905 84.0   741.33177
  3  0  3   733.05664 71.8   741.40508    5  2  3   711.51154 89.8   741.40426
  3  0  3   733.06872 49.5   741.41716    5  2  3   711.52527 77.7   741.41799
  3  0  3   733.10751 88.0   741.45595    5  2  3   711.56347 18.6   741.45619
  3  0  3   733.11224 87.5   741.46068    5  2  3   711.56860 38.8   741.46132
  3  0  3   733.11853 39.4   741.46697    5  2  3   711.57398 66.6   741.46670
  3  0  3   733.13124 56.6   741.47968    5  2  3   711.58787 87.2   741.48059
  3  0  3   733.15172 66.5   741.50016    5  2  3   711.60720 26.4   741.49992
  3  0  3   733.17194 88.8   741.52038    5  2  3   711.62678 17.2   741.51950
  3  0  3   733.18312 87.0   741.53156    5  2  3   711.63805 59.9   741.53077
  3  0  3   733.18804 87.3   741.53648    4  2  3   718.96762 29.9   741.53686
  3  0  3   733.21944 82.8   741.56788    4  2  3   718.99920 74.5   741.56844
  3  0  3   733.23814 80.9   741.58658    4  2  3   719.01734 45.7   741.58658
                                          5  2  3   711.69441 89.7   741.58713
  3  0  3   733.25434 49.1   741.60278    5  2  3   711.71054 87.7   741.60326
  3  0  3   733.25981 50.5   741.60825    4  2  3   719.03878 26.2   741.60802
  3  0  3   733.32556 44.5   741.67400    5  2  3   711.78052 88.0   741.67324
  3  0  3   733.34038 80.9   741.68882    5  2  3   711.79550 47.0   741.68822
  3  0  3   733.34538 85.3   741.69382    5  2  3   711.80072 85.8   741.69344
  3  0  3   733.42776 17.3   741.77620    4  2  3   719.20663 40.9   741.77587
  3  0  3   733.45575 72.2   741.80419    5  2  3   711.91157 60.5   741.80429
  3  0  3   733.49745 86.2   741.84589    4  2  3   719.27676 79.3   741.84600
  3  0  3   733.58303 71.6   741.93147    5  2  3   712.03795 60.0   741.93067
  3  0  3   733.62142 83.1   741.96986    4  2  3   719.40020 46.5   741.96944
  4  2  3   717.44065 45.6   740.00989    5  2  3   710.11646 59.8   740.00918
  4  2  3   717.45826 67.3   740.02750    5  2  3   710.13409 79.6   740.02681
  4  2  3   717.48064 14.9   740.04988    5  2  3   710.15638 54.0   740.04910
  4  2  3   717.48656 18.3   740.05580    5  2  3   710.16332 19.2   740.05604
  4  2  3   717.55237 37.6   740.12161    5  2  3   710.22817 83.5   740.12089
  4  2  3   717.67038 88.4   740.23962    5  2  3   710.34642 14.4   740.23914
  4  2  3   717.68134 75.7   740.25058    5  2  3   710.35741 74.3   740.25013
  4  2  3   717.68609 82.6   740.25533    5  2  3   710.36355 80.5   740.25627
  4  2  3   717.69178 36.1   740.26102    5  2  3   710.36899 21.5   740.26171
  4  2  3   717.75552 85.3   740.32476    5  2  3   710.43262 42.5   740.32534
  4  2  3   717.77818 54.9   740.34742    5  2  3   710.45438 59.2   740.34710
  4  2  3   717.83073 23.2   740.39997    5  2  3   710.50721 82.3   740.39993
  4  2  3   717.88195 37.2   740.45119    5  2  3   710.55846 77.2   740.45118
  4  2  3   717.93292 18.9   740.50216    5  2  3   710.60929 73.7   740.50201
  4  2  3   718.13052 25.4   740.69976    5  2  3   710.80694 78.6   740.69966
  4  2  3   718.13667 65.5   740.70591    5  2  3   710.81345 88.5   740.70617
  4  2  3   718.20760 24.5   740.77684    5  2  3   710.88354 79.9   740.77626
  4  2  3   718.23579 68.1   740.80503    5  2  3   710.91197 47.2   740.80469
  4  2  3   718.31984 75.6   740.88908    5  2  3   710.99733 81.3   740.89005
  4  2  3   718.41272 82.1   740.98196    5  2  3   711.08920 79.1   740.98192
  4  2  3   718.56839 19.5   741.13763    5  2  3   711.24578 80.0   741.13850
  4  2  3   718.58431 53.2   741.15355    5  2  3   711.26000 63.4   741.15272
  4  2  3   718.59057 39.6   741.15981    5  2  3   711.26621 34.7   741.15893
  4  2  3   718.60420 46.6   741.17344    5  2  3   711.27978 58.2   741.17250
  4  2  3   718.62751 73.7   741.19675    5  2  3   711.30430 88.8   741.19702
  4  2  3   718.63337 40.4   741.20261    5  2  3   711.30944 84.3   741.20216
  4  2  3   718.66478 30.3   741.23402    5  2  3   711.34087 13.0   741.23359
  4  2  3   718.69688 21.3   741.26612    5  2  3   711.37266 89.9   741.26538
  4  2  3   718.72426 57.1   741.29350    5  2  3   711.40104 59.3   741.29376
  4  2  3   718.76248 21.9   741.33172    5  2  3   711.43905 84.0   741.33177
  4  2  3   718.85987 18.9   741.42911    5  2  3   711.53555 44.5   741.42827
  4  2  3   718.87373 63.9   741.44297    5  2  3   711.54929 62.8   741.44201
  4  2  3   718.90777 40.7   741.47701    5  2  3   711.58372 50.3   741.47644
  4  2  3   718.97350 58.1   741.54274    5  2  3   711.65037 77.2   741.54309
  4  2  3   719.00519 88.2   741.57443    5  2  3   711.68125 86.1   741.57397
  4  2  3   719.01734 45.7   741.58658    5  2  3   711.69441 89.7   741.58713
  4  2  3   719.07746 81.6   741.64670    5  2  3   711.75324 82.8   741.64596
  4  2  3   719.08540 24.0   741.65464    5  2  3   711.76168 80.2   741.65440
  4  2  3   719.14671 45.2   741.71595    5  2  3   711.82423 85.1   741.71695
  4  2  3   719.18478 49.7   741.75402    5  2  3   711.86105 86.6   741.75377
  4  2  3   719.26737 56.0   741.83661    5  2  3   711.94452 60.7   741.83724
  4  2  3   719.28199 50.5   741.85123    5  2  3   711.95944 84.9   741.85216
  4  2  3   719.32850 50.8   741.89774    5  2  3   712.00435 72.3   741.89707
  4  2  3   719.38416 35.8   741.95340    5  2  3   712.06075 73.6   741.95347
  4  2  3   719.38952 68.9   741.95876    5  2  3   712.06604 62.2   741.95876

 Searching   5  1  4 near    748.35254
 No   1:   4  0  4       13.84736  reg   733.505 -   735.505
 No   2:   5  2  4       29.54562  reg   717.807 -   719.807
 No   3:   6  2  4       38.57011  reg   708.782 -   710.782
  4  0  4   733.52382 78.7   747.37118    6  2  4   708.80181 85.8   747.37192
  4  0  4   733.54679 21.9   747.39415    6  2  4   708.82327 89.4   747.39338
  4  0  4   733.58786 18.7   747.43522    6  2  4   708.86562 84.4   747.43573
  4  0  4   733.64446 81.0   747.49182    6  2  4   708.92134 89.2   747.49145
  4  0  4   733.65997 70.2   747.50733    5  2  4   717.96145 63.9   747.50707
  4  0  4   733.68305 65.6   747.53041    5  2  4   717.98523 44.4   747.53085
                                          6  2  4   708.96118 77.4   747.53129
  4  0  4   733.69035 70.4   747.53771    5  2  4   717.99253 82.1   747.53815
  4  0  4   733.71131 67.0   747.55867    5  2  4   718.01280 61.8   747.55842
  4  0  4   733.72066 47.3   747.56802    5  2  4   718.02196 77.7   747.56758
  4  0  4   733.72555 81.6   747.57291    5  2  4   718.02778 18.0   747.57340
  4  0  4   733.73117 73.6   747.57853    5  2  4   718.03385 53.3   747.57947
  4  0  4   733.74790 77.6   747.59526    6  2  4   709.02568 35.5   747.59579
  4  0  4   733.76816 76.1   747.61552    5  2  4   718.06991 45.8   747.61553
  4  0  4   733.79480 84.0   747.64216    5  2  4   718.09635 49.7   747.64197
  4  0  4   733.82182 57.9   747.66918    5  2  4   718.12429 83.0   747.66991
  4  0  4   733.82843 61.5   747.67579    5  2  4   718.13052 25.4   747.67614
                                          6  2  4   709.10513 87.2   747.67524
  4  0  4   733.83515 86.0   747.68251    5  2  4   718.13667 65.5   747.68229
  4  0  4   733.84240 53.8   747.68976    6  2  4   709.11895 71.8   747.68906
  4  0  4   733.84863 62.6   747.69599    6  2  4   709.12499 75.1   747.69510
  4  0  4   733.87829 86.5   747.72565    6  2  4   709.15645 84.1   747.72656
  4  0  4   733.89158 82.8   747.73894    6  2  4   709.16783 83.6   747.73794
  4  0  4   733.92029 68.2   747.76765    5  2  4   718.22218 33.1   747.76780
  4  0  4   733.94755 72.2   747.79491    6  2  4   709.22510 82.0   747.79521
  4  0  4   733.95334 57.1   747.80070    6  2  4   709.23026 84.4   747.80037
  4  0  4   733.96225 79.3   747.80961    5  2  4   718.26494 81.2   747.81056
                                          6  2  4   709.24013 84.4   747.81024
  4  0  4   733.99053 42.8   747.83789    5  2  4   718.29157 24.7   747.83719
  4  0  4   734.01291 86.2   747.86027    6  2  4   709.29096 85.0   747.86107
  4  0  4   734.02400 30.4   747.87136    6  2  4   709.30201 78.7   747.87212
  4  0  4   734.05231 84.6   747.89967    5  2  4   718.35314 74.1   747.89876
                                          6  2  4   709.32914 86.7   747.89925
  4  0  4   734.06508 77.1   747.91244    6  2  4   709.34220 15.6   747.91231
  4  0  4   734.08421 30.7   747.93157    5  2  4   718.38505 42.8   747.93067
                                          6  2  4   709.36187 74.3   747.93198
  4  0  4   734.09023 38.6   747.93759    5  2  4   718.39099 61.5   747.93661
  4  0  4   734.12696 87.5   747.97432    6  2  4   709.40430 81.4   747.97441
  4  0  4   734.15211 82.5   747.99947    5  2  4   718.45475 22.7   748.00037
  4  0  4   734.25708 75.1   748.10444    6  2  4   709.53403 64.8   748.10414
  4  0  4   734.30184 69.6   748.14920    5  2  4   718.60420 46.6   748.14982
  4  0  4   734.32517 87.1   748.17253    5  2  4   718.62751 73.7   748.17313
  4  0  4   734.33931 57.0   748.18667    6  2  4   709.61686 84.9   748.18697
  4  0  4   734.35418 74.2   748.20154    6  2  4   709.63131 69.1   748.20142
  4  0  4   734.42239 52.3   748.26975    5  2  4   718.72426 57.1   748.26988
  4  0  4   734.43631 74.6   748.28367    6  2  4   709.71434 86.1   748.28445
  4  0  4   734.68071 88.5   748.52807    6  2  4   709.95785 85.6   748.52796
  4  0  4   734.69382 80.4   748.54118    6  2  4   709.97203 70.0   748.54214
  4  0  4   734.71756 17.0   748.56492    6  2  4   709.99561 74.9   748.56572
  4  0  4   734.73657 27.1   748.58393    5  2  4   719.03878 26.2   748.58440
  4  0  4   734.75885 87.8   748.60621    6  2  4   710.03567 75.0   748.60578
  4  0  4   734.76302 72.3   748.61038    6  2  4   710.04049 52.2   748.61060
  4  0  4   734.76878 87.8   748.61614    5  2  4   719.07107 69.0   748.61669
  4  0  4   734.78218 77.2   748.62954    6  2  4   710.05995 83.8   748.63006
  4  0  4   734.81973 85.1   748.66709    6  2  4   710.09706 74.1   748.66717
  4  0  4   734.82403 88.8   748.67139    5  2  4   719.12673 34.7   748.67235
  4  0  4   734.95065 25.7   748.79801    6  2  4   710.22817 83.5   748.79828
  4  0  4   734.95659 72.6   748.80395    6  2  4   710.23290 80.5   748.80301
  4  0  4   734.96567 66.7   748.81303    5  2  4   719.26737 56.0   748.81299
                                          6  2  4   710.24207 66.9   748.81218
  4  0  4   734.99300 77.0   748.84036    5  2  4   719.29515 56.2   748.84077
                                          6  2  4   710.27055 20.6   748.84066
  4  0  4   735.01203 82.9   748.85939    6  2  4   710.28988 54.1   748.85999
  4  0  4   735.02732 16.0   748.87468    5  2  4   719.32850 50.8   748.87412
  4  0  4   735.03283 12.2   748.88019    6  2  4   710.31037 29.1   748.88048
  4  0  4   735.08741 41.5   748.93477    5  2  4   719.38952 68.9   748.93514
  4  0  4   735.09299 18.1   748.94035    5  2  4   719.39482 53.8   748.94044
  4  0  4   735.09758 78.9   748.94494    5  2  4   719.40020 46.5   748.94582
  4  0  4   735.14104 85.1   748.98840    6  2  4   710.41768 74.7   748.98779
  4  0  4   735.19171 48.5   749.03907    5  2  4   719.49268 70.7   749.03830
  4  0  4   735.21173 82.7   749.05909    6  2  4   710.48847 69.5   749.05858
  4  0  4   735.21675 63.8   749.06411    6  2  4   710.49361 89.6   749.06372
  4  0  4   735.27183 79.9   749.11919    6  2  4   710.54951 84.1   749.11962
  4  0  4   735.27738 24.5   749.12474    5  2  4   719.58004 60.1   749.12566
  4  0  4   735.40208 82.6   749.24944    6  2  4   710.67930 70.3   749.24941
  4  0  4   735.50298 14.9   749.35034    6  2  4   710.77946 79.1   749.34957
  5  2  4   717.83073 23.2   747.37635    6  2  4   708.80608 83.9   747.37619
  5  2  4   717.83639 82.6   747.38201    6  2  4   708.81115 75.2   747.38126
  5  2  4   717.86919 76.7   747.41481    6  2  4   708.84386 86.0   747.41397
  5  2  4   717.94507 73.3   747.49069    6  2  4   708.92134 89.2   747.49145
  5  2  4   717.98523 44.4   747.53085    6  2  4   708.96118 77.4   747.53129
  5  2  4   718.03385 53.3   747.57947    6  2  4   709.01017 55.8   747.58028
  5  2  4   718.05735 60.6   747.60297    6  2  4   709.03225 44.0   747.60236
  5  2  4   718.07541 84.2   747.62103    6  2  4   709.05159 88.3   747.62170
  5  2  4   718.09059 25.6   747.63621    6  2  4   709.06571 59.5   747.63582
  5  2  4   718.13052 25.4   747.67614    6  2  4   709.10513 87.2   747.67524
  5  2  4   718.19229 11.2   747.73791    6  2  4   709.16783 83.6   747.73794
  5  2  4   718.23087 66.1   747.77649    6  2  4   709.20615 61.8   747.77626
  5  2  4   718.24578 12.4   747.79140    6  2  4   709.22042 83.1   747.79053
  5  2  4   718.26494 81.2   747.81056    6  2  4   709.24013 84.4   747.81024
  5  2  4   718.35314 74.1   747.89876    6  2  4   709.32914 86.7   747.89925
  5  2  4   718.49308 73.2   748.03870    6  2  4   709.46776 80.1   748.03787
  5  2  4   718.52914 14.0   748.07476    6  2  4   709.50465 78.2   748.07476
  5  2  4   718.54272 53.7   748.08834    6  2  4   709.51901 71.0   748.08912
  5  2  4   718.62118 66.2   748.16680    6  2  4   709.59718 35.2   748.16729
  5  2  4   718.62751 73.7   748.17313    6  2  4   709.60389 72.5   748.17400
  5  2  4   718.63337 40.4   748.17899    6  2  4   709.60899 58.8   748.17910
  5  2  4   718.69688 21.3   748.24250    6  2  4   709.67224 25.6   748.24235
  5  2  4   718.74477 85.1   748.29039    6  2  4   709.72037 64.9   748.29048
  5  2  4   718.75032 61.2   748.29594    6  2  4   709.72670 54.5   748.29681
  5  2  4   718.77426 49.6   748.31988    6  2  4   709.75014 76.2   748.32025
  5  2  4   718.83771 45.5   748.38333    6  2  4   709.81257 48.8   748.38268
  5  2  4   718.87373 63.9   748.41935    6  2  4   709.84959 85.7   748.41970
  5  2  4   718.90777 40.7   748.45339    6  2  4   709.88380 83.5   748.45391
  5  2  4   719.08540 24.0   748.63102    6  2  4   710.05995 83.8   748.63006
  5  2  4   719.20061 12.7   748.74623    6  2  4   710.17668 20.4   748.74679
  5  2  4   719.26737 56.0   748.81299    6  2  4   710.24207 66.9   748.81218
  5  2  4   719.27196 68.0   748.81758    6  2  4   710.24758 82.4   748.81769
  5  2  4   719.27676 79.3   748.82238    6  2  4   710.25201 89.2   748.82212
  5  2  4   719.29515 56.2   748.84077    6  2  4   710.27055 20.6   748.84066
  5  2  4   719.43187 10.5   748.97749    6  2  4   710.40657 66.7   748.97668
  5  2  4   719.47812 29.7   749.02374    6  2  4   710.45438 59.2   749.02449
  5  2  4   719.53965 11.0   749.08527    6  2  4   710.51426 65.4   749.08437
  5  2  4   719.54613 56.9   749.09175    6  2  4   710.52172 70.7   749.09183
  5  2  4   719.55197 50.5   749.09759    6  2  4   710.52717 68.9   749.09728
  5  2  4   719.75145 74.7   749.29707    6  2  4   710.72659 34.8   749.29670
  5  2  4   719.76721 21.4   749.31283    6  2  4   710.74269 78.7   749.31280
  5  2  4   719.78334 41.8   749.32896    6  2  4   710.75876 70.8   749.32887

 Searching   6  1  5 near    757.17282
 No   1:   5  0  5       20.65134  reg   735.521 -   737.521
 No   2:   6  2  5       37.89832  reg   718.274 -   720.274
 No   3:   7  2  5       48.77161  reg   707.401 -   709.401
  5  0  5   735.52695 82.4   756.17829    7  2  5   707.40710 48.1   756.17871
  5  0  5   735.58965 81.9   756.24099    6  2  5   718.34208 35.8   756.24040
  5  0  5   735.61065 40.6   756.26199    6  2  5   718.36307 22.7   756.26139
  5  0  5   735.62496 79.9   756.27630    6  2  5   718.37760 66.0   756.27592
  5  0  5   735.63171 73.7   756.28305    6  2  5   718.38505 42.8   756.28337
  5  0  5   735.63624 40.1   756.28758    7  2  5   707.51578 70.3   756.28739
  5  0  5   735.65640 38.7   756.30774    6  2  5   718.40965 81.7   756.30797
  5  0  5   735.66062 34.2   756.31196    6  2  5   718.41272 82.1   756.31104
  5  0  5   735.66929 51.9   756.32063    6  2  5   718.42265 26.5   756.32097
  5  0  5   735.71084 75.7   756.36218    6  2  5   718.46479 81.0   756.36311
  5  0  5   735.72539 21.8   756.37673    6  2  5   718.47896 80.6   756.37728
                                          7  2  5   707.60536 87.2   756.37697
  5  0  5   735.74042 81.9   756.39176    6  2  5   718.49308 73.2   756.39140
  5  0  5   735.78877 82.9   756.44011    6  2  5   718.54272 53.7   756.44104
  5  0  5   735.83752 84.6   756.48886    6  2  5   718.59057 39.6   756.48889
  5  0  5   735.86203 89.6   756.51337    7  2  5   707.74243 78.0   756.51404
  5  0  5   735.86831 59.5   756.51965    6  2  5   718.62118 66.2   756.51950
                                          7  2  5   707.74783 71.4   756.51944
  5  0  5   735.87417 55.9   756.52551    6  2  5   718.62751 73.7   756.52583
                                          7  2  5   707.75328 57.5   756.52489
  5  0  5   735.88019 11.8   756.53153    6  2  5   718.63337 40.4   756.53169
  5  0  5   736.01010 79.6   756.66144    6  2  5   718.76248 21.9   756.66080
  5  0  5   736.05566 11.8   756.70700    7  2  5   707.93449 73.0   756.70610
  5  0  5   736.10174 83.8   756.75308    7  2  5   707.98093 88.9   756.75254
  5  0  5   736.11627 41.5   756.76761    6  2  5   718.86963 80.0   756.76795
  5  0  5   736.12503 72.4   756.77637    7  2  5   708.00539 72.3   756.77700
  5  0  5   736.19656 77.2   756.84790    7  2  5   708.07701 19.5   756.84862
  5  0  5   736.22145 66.5   756.87279    6  2  5   718.97350 58.1   756.87182
  5  0  5   736.22649 87.6   756.87783    6  2  5   718.97953 62.0   756.87785
  5  0  5   736.23164 69.7   756.88298    6  2  5   718.98486 65.8   756.88318
                                          7  2  5   708.11230 83.3   756.88391
  5  0  5   736.25540 86.8   756.90674    6  2  5   719.00902 84.2   756.90734
  5  0  5   736.28235 88.9   756.93369    7  2  5   708.16270 76.2   756.93431
  5  0  5   736.29591 88.1   756.94725    6  2  5   719.04816 77.7   756.94648
  5  0  5   736.32590 80.4   756.97724    7  2  5   708.20559 89.1   756.97720
  5  0  5   736.39009 55.6   757.04143    7  2  5   708.26886 73.8   757.04047
  5  0  5   736.42535 76.2   757.07669    6  2  5   719.17914 44.3   757.07746
  5  0  5   736.43731 60.0   757.08865    6  2  5   719.19027 33.0   757.08859
                                          7  2  5   708.31712 89.9   757.08873
  5  0  5   736.44375 65.9   757.09509    7  2  5   708.32308 73.0   757.09469
  5  0  5   736.45480 19.2   757.10614    7  2  5   708.33359 75.7   757.10520
  5  0  5   736.48453 87.3   757.13587    7  2  5   708.36506 79.2   757.13667
  5  0  5   736.49019 80.8   757.14153    7  2  5   708.36987 87.8   757.14148
  5  0  5   736.49649 68.6   757.14783    7  2  5   708.37569 82.5   757.14730
  5  0  5   736.55192 87.2   757.20326    6  2  5   719.30568 83.0   757.20400
                                          7  2  5   708.43130 80.1   757.20291
  5  0  5   736.56285 79.4   757.21419    6  2  5   719.31601 69.3   757.21434
  5  0  5   736.63982 47.9   757.29116    7  2  5   708.51983 72.6   757.29144
  5  0  5   736.64499 35.2   757.29633    7  2  5   708.52414 29.1   757.29575
  5  0  5   736.66078 73.2   757.31212    6  2  5   719.41303 61.0   757.31135
                                          7  2  5   708.53964 86.0   757.31125
  5  0  5   736.67799 57.2   757.32933    6  2  5   719.43187 10.5   757.33019
  5  0  5   736.75933 77.2   757.41067    7  2  5   708.63826 88.3   757.40987
  5  0  5   736.77928 60.3   757.43062    7  2  5   708.65905 36.2   757.43066
  5  0  5   736.79977 64.8   757.45111    6  2  5   719.55197 50.5   757.45029
  5  0  5   736.80779 71.9   757.45913    7  2  5   708.68798 85.9   757.45959
  5  0  5   736.82842 61.5   757.47976    7  2  5   708.70839 87.9   757.48000
  5  0  5   736.94293 34.0   757.59427    7  2  5   708.82327 89.4   757.59488
  5  0  5   736.94871 46.1   757.60005    6  2  5   719.70261 41.8   757.60093
  5  0  5   736.99103 71.9   757.64237    7  2  5   708.87166 86.2   757.64327
  5  0  5   737.11341 78.8   757.76475    7  2  5   708.99333 89.7   757.76494
  5  0  5   737.12311 67.2   757.77445    6  2  5   719.87527 13.7   757.77359
  5  0  5   737.15306 27.7   757.80440    7  2  5   709.03225 44.0   757.80386
  5  0  5   737.17842 60.5   757.82976    7  2  5   709.05722 43.4   757.82883
  5  0  5   737.27126 83.1   757.92260    7  2  5   709.15155 84.5   757.92316
  5  0  5   737.34056 80.1   757.99190    7  2  5   709.22042 83.1   757.99203
  5  0  5   737.34598 68.1   757.99732    7  2  5   709.22510 82.0   757.99671
  5  0  5   737.35045 76.8   758.00179    7  2  5   709.23026 84.4   758.00187
  5  0  5   737.35600 78.6   758.00734    7  2  5   709.23539 76.5   758.00700
  5  0  5   737.36084 75.7   758.01218    7  2  5   709.24013 84.4   758.01174
  5  0  5   737.39333 47.2   758.04467    7  2  5   709.27263 88.9   758.04424
  5  0  5   737.41066 88.1   758.06200    7  2  5   709.29096 85.0   758.06257
  5  0  5   737.41730 84.9   758.06864    7  2  5   709.29659 60.0   758.06820
  5  0  5   737.44264 70.9   758.09398    7  2  5   709.32316 65.5   758.09477
  5  0  5   737.45028 62.6   758.10162    7  2  5   709.32914 86.7   758.10075
  5  0  5   737.48221 78.8   758.13355    7  2  5   709.36187 74.3   758.13348
  5  0  5   737.52520 89.4   758.17654    7  2  5   709.40430 81.4   758.17591
  6  2  5   718.29157 24.7   756.18989    7  2  5   707.41844 79.1   756.19005
  6  2  5   718.47896 80.6   756.37728    7  2  5   707.60536 87.2   756.37697
  6  2  5   718.48411 43.2   756.38243    7  2  5   707.61046 89.5   756.38207
  6  2  5   718.48901 80.9   756.38733    7  2  5   707.61564 64.0   756.38725
  6  2  5   718.58431 53.2   756.48263    7  2  5   707.71199 89.8   756.48360
  6  2  5   718.62118 66.2   756.51950    7  2  5   707.74783 71.4   756.51944
  6  2  5   718.62751 73.7   756.52583    7  2  5   707.75328 57.5   756.52489
  6  2  5   718.87373 63.9   756.77205    7  2  5   707.99961 76.7   756.77122
  6  2  5   718.87927 15.9   756.77759    7  2  5   708.00539 72.3   756.77700
  6  2  5   718.98486 65.8   756.88318    7  2  5   708.11230 83.3   756.88391
  6  2  5   718.99920 74.5   756.89752    7  2  5   708.12670 84.6   756.89831
  6  2  5   719.14671 45.2   757.04503    7  2  5   708.27370 84.8   757.04531
  6  2  5   719.19027 33.0   757.08859    7  2  5   708.31712 89.9   757.08873
  6  2  5   719.20061 12.7   757.09893    7  2  5   708.32804 79.3   757.09965
  6  2  5   719.20663 40.9   757.10495    7  2  5   708.33359 75.7   757.10520
  6  2  5   719.26107 29.7   757.15939    7  2  5   708.38784 89.3   757.15945
  6  2  5   719.27196 68.0   757.17028    7  2  5   708.39838 88.1   757.16999
  6  2  5   719.27676 79.3   757.17508    7  2  5   708.40385 72.0   757.17546
  6  2  5   719.41303 61.0   757.31135    7  2  5   708.53964 86.0   757.31125
  6  2  5   719.55197 50.5   757.45029    7  2  5   708.67801 68.7   757.44962
  6  2  5   719.67870 53.5   757.57702    7  2  5   708.80608 83.9   757.57769
  6  2  5   719.68500 77.2   757.58332    7  2  5   708.81115 75.2   757.58276
  6  2  5   719.74582 59.1   757.64414    7  2  5   708.87166 86.2   757.64327
  6  2  5   719.93985 17.4   757.83817    7  2  5   709.06571 59.5   757.83732
