Range    : 0.500
Accuracy : 0.001
Control file  : C2HD3gr   
Spectrum file : s         

 Searching   3  3  0 near   1026.70560
 No   1:   2  2  0       12.78833  reg  1013.417 -  1014.417
 No   2:   4  4  0       48.31320  reg   977.892 -   978.892
  2  2  0  1013.93806 85.1  1026.72639    4  4  0   978.41269 72.0  1026.72589
  2  2  0  1014.23460 82.0  1027.02293    4  4  0   978.70956 89.8  1027.02276

 Searching   4  3  1 near   1032.32670
 No   1:   3  2  1       17.02892  reg  1014.798 -  1015.798
 No   2:   4  4  1       48.31318  reg   983.514 -   984.514
 No   3:   5  4  1       55.33487  reg   976.492 -   977.492
  3  2  1  1015.10732 83.7  1032.13624    5  4  1   976.80170 35.9  1032.13657
  3  2  1  1015.21977 88.5  1032.24869    5  4  1   976.91376 87.4  1032.24863
  3  2  1  1015.34084 86.1  1032.36976    5  4  1   977.03501 82.0  1032.36988
  3  2  1  1015.39636 72.9  1032.42528    5  4  1   977.08944 79.7  1032.42431
  3  2  1  1015.74958 85.3  1032.77850    4  4  1   984.46495 55.8  1032.77813
  4  4  1   983.63678 77.7  1031.94996    5  4  1   976.61584 59.6  1031.95071

 Searching   5  3  2 near   1039.36522
 No   1:   4  2  2       22.72108  reg  1016.144 -  1017.144
 No   2:   5  4  2       55.33476  reg   983.530 -   984.530
 No   3:   6  4  2       63.76837  reg   975.097 -   976.097
  4  2  2  1016.24948 73.6  1038.97056    5  4  2   983.63678 77.7  1038.97154
  4  2  2  1016.26234 70.9  1038.98342    6  4  2   975.21428 71.9  1038.98265
  4  2  2  1016.45172 80.0  1039.17280    6  4  2   975.40518 40.9  1039.17355
  4  2  2  1016.68028 86.3  1039.40136    6  4  2   975.63346 88.9  1039.40183
  4  2  2  1016.73127 82.9  1039.45235    6  4  2   975.68311 86.9  1039.45148

 Searching   6  3  3 near   1047.83140
 No   1:   5  2  3       29.89272  reg  1017.439 -  1018.439
 No   2:   6  4  3       63.76783  reg   983.564 -   984.564
 No   3:   7  4  3       73.61808  reg   973.713 -   974.713
  5  2  3  1017.58056 83.5  1047.47328    6  4  3   983.70584 61.1  1047.47367
  5  2  3  1017.66092 81.9  1047.55364    7  4  3   973.93540 83.3  1047.55348
  5  2  3  1018.11309 87.3  1048.00581    6  4  3   984.23747 69.1  1048.00530
  6  4  3   983.74405 87.0  1047.51188    7  4  3   973.89313 86.1  1047.51121
  6  4  3   983.93875 66.6  1047.70658    7  4  3   974.08769 52.2  1047.70577

 Searching   7  3  4 near   1057.73950
 No   1:   6  2  4       38.57011  reg  1018.669 -  1019.669
 No   2:   7  4  4       73.61611  reg   983.623 -   984.623
 No   3:   8  4  4       84.88948  reg   972.350 -   973.350
  6  2  4  1018.80360 72.1  1057.37371    8  4  4   972.48409 86.8  1057.37357
  6  2  4  1018.97378 63.7  1057.54389    7  4  4   983.92705 86.2  1057.54316
  7  4  4   983.91318 46.3  1057.52929    8  4  4   972.63946 47.7  1057.52894
  7  4  4   984.52036 89.3  1058.13647    8  4  4   973.24775 83.3  1058.13723

 Searching   8  3  5 near   1069.10844
 No   1:   7  2  5       48.77161  reg  1019.837 -  1020.837
 No   2:   8  4  5       84.88362  reg   983.725 -   984.725
 No   3:   9  4  5       97.58956  reg   971.019 -   972.019
  7  2  5  1019.99053 78.2  1068.76214    9  4  5   971.17174 79.0  1068.76130
  7  2  5  1020.84191 86.6  1069.61352    9  4  5   972.02395 84.3  1069.61351
  8  4  5   983.93875 66.6  1068.82237    9  4  5   971.23244 34.3  1068.82200
